title:your record name, start timestamp:1602278985.467800, stop timestamp:1602279015.762324, headset type:EPOC, headset serial:78958564, headset firmware:1e00, subject name:alzaabi.su, channels:38, sampling rate:128, samples:3875      , version:2.0
Timestamp,EEG.Counter,EEG.Interpolated,EEG.AF3,EEG.F7,EEG.F3,EEG.FC5,EEG.T7,EEG.P7,EEG.O1,EEG.O2,EEG.P8,EEG.T8,EEG.FC6,EEG.F4,EEG.F8,EEG.AF4,EEG.RawCq,EEG.Battery,MarkerIndex,MarkerType,MarkerValueInt,EEG.MarkerHardware,CQ.AF3,CQ.F7,CQ.F3,CQ.FC5,CQ.T7,CQ.P7,CQ.O1,CQ.O2,CQ.P8,CQ.T8,CQ.FC6,CQ.F4,CQ.F8,CQ.AF4,CQ.Overall
1602278985.467800,38.000000,0.000000,3858.974365,4533.333496,4157.436035,4193.846191,3953.333252,4526.153809,3896.923096,3816.410156,4244.615234,4084.615479,4121.025879,4230.256348,4011.281982,3940.512939,0.000000,4.000000,,,,0.000000,4.000000,4.000000,0.000000,4.000000,4.000000,4.000000,4.000000,4.000000,4.000000,1.000000,4.000000,4.000000,4.000000,2.000000,25.000000
1602278985.475524,39.000000,0.000000,3848.205078,4530.256348,4158.974121,4188.205078,3933.333252,4528.717773,3888.205078,3812.307617,4234.358887,4068.718018,4109.230957,4224.615234,4007.179443,3933.846191,0.000000,4.000000,,,,0.000000,4.000000,4.000000,0.000000,4.000000,4.000000,4.000000,4.000000,4.000000,4.000000,1.000000,4.000000,4.000000,4.000000,2.000000,25.000000
1602278985.483450,40.000000,0.000000,3845.641113,4538.974121,4157.436035,4194.358887,3936.923096,4537.948730,3890.256348,3802.051270,4223.077148,4065.641113,4120.000000,4225.641113,3998.461426,3935.384521,0.000000,4.000000,,,,0.000000,4.000000,4.000000,0.000000,4.000000,4.000000,4.000000,4.000000,4.000000,4.000000,1.000000,4.000000,4.000000,4.000000,2.000000,25.000000
1602278985.491277,41.000000,0.000000,3864.102539,4550.256348,4160.512695,4208.717773,3950.769287,4549.743652,3910.769287,3818.974365,4247.179688,4072.820557,4136.410156,4244.102539,4013.333252,3947.179443,0.000000,4.000000,,,,0.000000,4.000000,4.000000,0.000000,4.000000,4.000000,4.000000,4.000000,4.000000,4.000000,1.000000,4.000000,4.000000,4.000000,2.000000,25.000000
1602278985.499203,42.000000,0.000000,3864.102539,4533.333496,4161.025879,4202.051270,3929.743652,4547.179688,3919.487061,3826.153809,4258.461426,4068.205078,4135.897461,4246.153809,4022.051270,3942.051270,0.000000,4.000000,,,,0.000000,4.000000,4.000000,0.000000,4.000000,4.000000,4.000000,4.000000,4.000000,4.000000,1.000000,4.000000,4.000000,4.000000,2.000000,25.000000
1602278985.507029,43.000000,0.000000,3851.281982,4514.358887,4157.436035,4183.077148,3917.435791,4541.025879,3908.718018,3812.820557,4241.538574,4058.974365,4129.230957,4233.846191,4003.589844,3933.333252,0.000000,4.000000,,,,0.000000,4.000000,4.000000,0.000000,4.000000,4.000000,4.000000,4.000000,4.000000,4.000000,1.000000,4.000000,4.000000,4.000000,2.000000,25.000000
1602278985.514955,44.000000,0.000000,3854.871826,4521.538574,4154.871582,4181.025879,3938.974365,4544.102539,3896.410156,3820.512939,4248.205078,4053.333252,4124.102539,4233.333496,3991.281982,3935.897461,0.000000,4.000000,,,,0.000000,4.000000,4.000000,0.000000,4.000000,4.000000,4.000000,4.000000,4.000000,4.000000,1.000000,4.000000,4.000000,4.000000,2.000000,25.000000
1602278985.522781,45.000000,0.000000,3858.461426,4536.410156,4158.974121,4191.794922,3937.435791,4551.282227,3906.666748,3830.769287,4263.589844,4046.666748,4125.128418,4240.000000,4003.076904,3937.948730,0.000000,4.000000,,,,0.000000,4.000000,4.000000,0.000000,4.000000,4.000000,4.000000,4.000000,4.000000,4.000000,1.000000,4.000000,4.000000,4.000000,2.000000,25.000000
1602278985.530706,46.000000,0.000000,3852.307617,4543.077148,4161.538574,4192.307617,3920.000000,4555.384766,3923.076904,3818.974365,4252.820313,4040.000000,4134.871582,4237.948730,4018.461426,3933.333252,0.000000,4.000000,,,,0.000000,4.000000,4.000000,0.000000,4.000000,4.000000,4.000000,4.000000,4.000000,4.000000,1.000000,4.000000,4.000000,4.000000,2.000000,25.000000
1602278985.538532,47.000000,0.000000,3853.846191,4532.307617,4159.487305,4187.179688,3926.666748,4541.538574,3906.153809,3811.281982,4240.000000,4031.281982,4130.256348,4226.666504,4013.333252,3933.846191,0.000000,4.000000,,,,0.000000,4.000000,4.000000,0.000000,4.000000,4.000000,4.000000,4.000000,4.000000,4.000000,1.000000,4.000000,4.000000,4.000000,2.000000,25.000000
1602278985.546457,48.000000,0.000000,3860.512939,4525.641113,4154.358887,4195.384766,3944.102539,4546.153809,3903.589844,3821.538574,4249.230957,4025.641113,4118.974121,4222.563965,4005.128174,3938.461426,0.000000,4.000000,,,,0.000000,4.000000,4.000000,0.000000,4.000000,4.000000,4.000000,4.000000,4.000000,4.000000,1.000000,4.000000,4.000000,4.000000,2.000000,25.000000
1602278985.554282,49.000000,0.000000,3854.871826,4536.410156,4155.897461,4202.563965,3935.897461,4564.102539,3910.769287,3821.025635,4248.205078,4021.025635,4122.563965,4226.153809,4003.076904,3937.435791,0.000000,4.000000,,,,0.000000,4.000000,4.000000,0.000000,4.000000,4.000000,4.000000,4.000000,4.000000,4.000000,1.000000,4.000000,4.000000,4.000000,2.000000,25.000000
1602278985.562108,50.000000,0.000000,3843.076904,4528.205078,4158.974121,4187.179688,3913.846191,4544.102539,3884.615479,3795.384521,4221.025879,4010.256348,4123.589844,4218.974121,3984.615479,3927.692383,0.000000,4.000000,,,,0.000000,4.000000,4.000000,0.000000,4.000000,4.000000,4.000000,4.000000,4.000000,4.000000,1.000000,4.000000,4.000000,4.000000,2.000000,25.000000
1602278985.570035,51.000000,0.000000,3849.743652,4514.871582,4161.025879,4182.563965,3926.153809,4535.384766,3896.923096,3790.769287,4223.077148,4001.025635,4121.538574,4215.384766,3977.435791,3930.256348,0.000000,4.000000,,,,0.000000,4.000000,4.000000,0.000000,4.000000,4.000000,4.000000,4.000000,4.000000,4.000000,1.000000,4.000000,4.000000,4.000000,2.000000,25.000000
1602278985.577863,52.000000,0.000000,3858.974365,4531.794922,4160.512695,4192.820313,3935.384521,4558.461426,3940.000000,3813.846191,4252.820313,3994.871826,4128.205078,4224.102539,3999.487061,3937.948730,0.000000,4.000000,,,,0.000000,4.000000,4.000000,0.000000,4.000000,4.000000,4.000000,4.000000,4.000000,4.000000,1.000000,4.000000,4.000000,4.000000,2.000000,25.000000
1602278985.585690,53.000000,0.000000,3856.410156,4546.153809,4158.974121,4189.230957,3910.256348,4550.769043,3920.000000,3821.025635,4252.307617,3987.692383,4132.820313,4224.615234,4013.846191,3934.871826,0.000000,4.000000,,,,0.000000,4.000000,4.000000,0.000000,4.000000,4.000000,4.000000,4.000000,4.000000,4.000000,1.000000,4.000000,4.000000,4.000000,2.000000,25.000000
1602278985.593415,54.000000,0.000000,3864.615479,4540.000000,4160.000000,4190.769043,3910.256348,4538.974121,3891.794922,3817.435791,4244.102539,3980.000000,4136.922852,4222.563965,4015.384521,3934.871826,0.000000,4.000000,,,,0.000000,4.000000,4.000000,0.000000,4.000000,4.000000,4.000000,4.000000,4.000000,4.000000,1.000000,4.000000,4.000000,4.000000,2.000000,25.000000
1602278985.601239,55.000000,0.000000,3874.871826,4539.487305,4161.025879,4203.077148,3942.564209,4563.589844,3919.487061,3828.205078,4257.436035,3974.358887,4143.589844,4228.717773,4018.974365,3940.512939,0.000000,4.000000,,,,0.000000,4.000000,4.000000,0.000000,4.000000,4.000000,4.000000,4.000000,4.000000,4.000000,1.000000,4.000000,4.000000,4.000000,2.000000,25.000000
1602278985.608964,56.000000,0.000000,3871.281982,4546.666504,4161.538574,4201.538574,3942.564209,4572.307617,3934.871826,3837.948730,4261.538574,3971.794922,4147.692383,4235.897461,4014.358887,3944.615479,0.000000,4.000000,,,,0.000000,4.000000,4.000000,0.000000,4.000000,4.000000,4.000000,4.000000,4.000000,4.000000,1.000000,4.000000,4.000000,4.000000,2.000000,25.000000
1602278985.616788,57.000000,0.000000,3869.230713,4546.666504,4157.948730,4195.897461,3924.102539,4556.922852,3922.564209,3835.384521,4255.897461,3970.256348,4150.769043,4235.897461,4008.205078,3944.615479,0.000000,4.000000,,,,0.000000,4.000000,4.000000,0.000000,4.000000,4.000000,4.000000,4.000000,4.000000,4.000000,1.000000,4.000000,4.000000,4.000000,2.000000,25.000000
1602278985.624513,58.000000,0.000000,3867.179443,4535.384766,4160.000000,4192.307617,3914.358887,4540.000000,3913.846191,3820.000000,4247.179688,3960.512939,4143.077148,4223.077148,4006.153809,3938.974365,0.000000,4.000000,,,,0.000000,4.000000,4.000000,0.000000,4.000000,4.000000,4.000000,4.000000,4.000000,4.000000,1.000000,4.000000,4.000000,4.000000,2.000000,25.000000
1602278985.632337,59.000000,0.000000,3862.564209,4527.179688,4161.538574,4185.128418,3913.846191,4541.025879,3910.769287,3811.281982,4242.051270,3950.256348,4133.846191,4213.333496,4003.076904,3934.358887,0.000000,4.000000,,,,0.000000,4.000000,4.000000,0.000000,4.000000,4.000000,4.000000,4.000000,4.000000,4.000000,1.000000,4.000000,4.000000,4.000000,2.000000,25.000000
1602278985.640061,60.000000,0.000000,3866.666748,4533.333496,4158.974121,4189.230957,3928.718018,4552.820313,3911.281982,3831.794922,4251.282227,3951.281982,4137.948730,4223.077148,4007.692383,3942.051270,0.000000,4.000000,,,,0.000000,4.000000,4.000000,0.000000,4.000000,4.000000,4.000000,4.000000,4.000000,4.000000,1.000000,4.000000,4.000000,4.000000,2.000000,25.000000
1602278985.647987,61.000000,0.000000,3867.179443,4540.000000,4156.410156,4199.487305,3926.666748,4545.641113,3903.589844,3836.410156,4252.307617,3955.897461,4149.743652,4231.794922,4021.025635,3945.128174,0.000000,4.000000,,,,0.000000,4.000000,4.000000,0.000000,4.000000,4.000000,4.000000,4.000000,4.000000,4.000000,1.000000,4.000000,4.000000,4.000000,2.000000,25.000000
1602278985.655814,62.000000,0.000000,3864.102539,4540.512695,4161.025879,4200.000000,3910.256348,4546.666504,3909.230713,3809.743652,4243.589844,3953.846191,4154.358887,4231.282227,4024.615479,3941.025635,0.000000,4.000000,,,,0.000000,4.000000,4.000000,0.000000,4.000000,4.000000,4.000000,4.000000,4.000000,4.000000,1.000000,4.000000,4.000000,4.000000,2.000000,25.000000
1602278985.663739,63.000000,0.000000,3864.615479,4539.487305,4162.563965,4201.025879,3925.641113,4571.794922,3930.256348,3806.153809,4248.717773,3945.641113,4146.153809,4233.846191,4010.769287,3941.538574,0.000000,4.000000,,,,0.000000,4.000000,4.000000,0.000000,4.000000,4.000000,4.000000,4.000000,4.000000,4.000000,1.000000,4.000000,4.000000,4.000000,2.000000,25.000000
1602278985.671566,64.000000,0.000000,3866.153809,4534.358887,4161.025879,4196.922852,3940.512939,4563.077148,3917.435791,3812.820557,4250.256348,3942.564209,4135.384766,4230.256348,3992.307617,3939.487061,0.000000,4.000000,,,,0.000000,4.000000,4.000000,0.000000,4.000000,4.000000,4.000000,4.000000,4.000000,4.000000,1.000000,4.000000,4.000000,4.000000,2.000000,25.000000
1602278985.679491,65.000000,0.000000,3870.256348,4543.077148,4161.025879,4188.717773,3925.641113,4537.948730,3898.974365,3809.743652,4249.230957,3950.256348,4140.512695,4225.128418,3999.487061,3936.410156,421.000000,4.000000,,,,0.000000,4.000000,4.000000,0.000000,4.000000,4.000000,4.000000,4.000000,4.000000,4.000000,1.000000,4.000000,4.000000,4.000000,2.000000,25.000000
1602278985.687317,66.000000,0.000000,3876.410156,4562.563965,4161.025879,4193.846191,3920.512939,4555.384766,3926.153809,3823.589844,4266.666504,3956.410156,4151.794922,4228.717773,4021.538574,3942.051270,386.000000,4.000000,,,,0.000000,4.000000,4.000000,0.000000,4.000000,4.000000,4.000000,4.000000,4.000000,4.000000,1.000000,4.000000,4.000000,4.000000,2.000000,25.000000
1602278985.695243,67.000000,0.000000,3874.358887,4557.948730,4159.487305,4204.615234,3931.281982,4571.282227,3943.589844,3841.538574,4271.794922,3955.384521,4147.692383,4230.769043,4026.153809,3944.102539,446.000000,4.000000,,,,0.000000,4.000000,4.000000,0.000000,4.000000,4.000000,4.000000,4.000000,4.000000,4.000000,1.000000,4.000000,4.000000,4.000000,2.000000,25.000000
1602278985.703068,68.000000,0.000000,3873.333252,4550.769043,4160.512695,4204.615234,3927.179443,4560.000000,3933.846191,3838.974365,4262.051270,3956.923096,4143.589844,4231.282227,4025.641113,3944.615479,476.000000,4.000000,,,,0.000000,4.000000,4.000000,0.000000,4.000000,4.000000,4.000000,4.000000,4.000000,4.000000,1.000000,4.000000,4.000000,4.000000,2.000000,25.000000
1602278985.710994,69.000000,0.000000,3876.923096,4555.897461,4161.538574,4203.589844,3922.051270,4561.025879,3941.538574,3840.512939,4268.205078,3960.512939,4150.256348,4240.512695,4025.128174,3949.230713,411.000000,4.000000,,,,0.000000,4.000000,4.000000,0.000000,4.000000,4.000000,4.000000,4.000000,4.000000,4.000000,1.000000,4.000000,4.000000,4.000000,2.000000,25.000000
1602278985.718819,70.000000,0.000000,3872.820557,4542.563965,4161.025879,4199.487305,3929.743652,4552.307617,3926.666748,3835.384521,4263.077148,3959.487061,4148.205078,4238.974121,4011.794922,3945.128174,468.000000,4.000000,,,,0.000000,4.000000,4.000000,0.000000,4.000000,4.000000,4.000000,4.000000,4.000000,4.000000,1.000000,4.000000,4.000000,4.000000,2.000000,25.000000
1602278985.726744,71.000000,0.000000,3867.692383,4527.179688,4162.563965,4187.179688,3933.333252,4530.769043,3890.256348,3816.923096,4247.692383,3956.923096,4140.000000,4229.230957,4006.153809,3938.461426,392.000000,4.000000,,,,0.000000,4.000000,4.000000,0.000000,4.000000,4.000000,4.000000,4.000000,4.000000,4.000000,1.000000,4.000000,4.000000,4.000000,2.000000,25.000000
1602278985.734570,72.000000,0.000000,3876.410156,4550.256348,4162.051270,4192.820313,3926.666748,4557.948730,3912.820557,3833.846191,4269.743652,3957.948730,4145.128418,4231.794922,4015.897461,3944.102539,413.000000,4.000000,,,,0.000000,4.000000,4.000000,0.000000,4.000000,4.000000,4.000000,4.000000,4.000000,4.000000,1.000000,4.000000,4.000000,4.000000,2.000000,25.000000
1602278985.742295,73.000000,0.000000,3887.179443,4574.358887,4162.051270,4206.666504,3918.461426,4600.512695,3963.589844,3870.256348,4303.077148,3961.025635,4151.282227,4240.512695,4020.000000,3956.410156,52.000000,4.000000,,,,0.000000,4.000000,4.000000,0.000000,4.000000,4.000000,4.000000,4.000000,4.000000,4.000000,1.000000,4.000000,4.000000,4.000000,2.000000,25.000000
1602278985.750120,74.000000,0.000000,3890.256348,4556.922852,4161.538574,4205.641113,3926.666748,4585.128418,3954.358887,3862.564209,4294.358887,3956.923096,4149.743652,4241.025879,4028.718018,3953.846191,443.000000,4.000000,,,,0.000000,4.000000,4.000000,0.000000,4.000000,4.000000,4.000000,4.000000,4.000000,4.000000,1.000000,4.000000,4.000000,4.000000,2.000000,25.000000
1602278985.757845,75.000000,0.000000,3886.666748,4537.436035,4161.538574,4199.487305,3936.923096,4559.487305,3924.102539,3833.333252,4271.794922,3954.871826,4153.333496,4238.974121,4045.128174,3947.692383,239.000000,4.000000,,,,0.000000,4.000000,4.000000,0.000000,4.000000,4.000000,4.000000,4.000000,4.000000,4.000000,1.000000,4.000000,4.000000,4.000000,2.000000,25.000000
1602278985.765772,76.000000,0.000000,3871.281982,4545.641113,4160.000000,4193.333496,3926.666748,4566.153809,3929.230713,3834.871826,4268.717773,3960.000000,4148.205078,4230.256348,4034.358887,3943.076904,427.000000,4.000000,,,,0.000000,4.000000,4.000000,0.000000,4.000000,4.000000,4.000000,4.000000,4.000000,4.000000,1.000000,4.000000,4.000000,4.000000,2.000000,25.000000
1602278985.773599,77.000000,0.000000,3856.410156,4549.743652,4161.025879,4181.025879,3911.794922,4557.436035,3928.205078,3840.512939,4268.717773,3952.820557,4126.153809,4213.333496,4005.128174,3936.410156,355.000000,4.000000,,,,0.000000,4.000000,4.000000,0.000000,4.000000,4.000000,4.000000,4.000000,4.000000,4.000000,1.000000,4.000000,4.000000,4.000000,2.000000,25.000000
1602278985.781427,78.000000,0.000000,3864.102539,4541.538574,4160.000000,4184.615234,3911.794922,4555.384766,3922.051270,3839.487061,4276.410156,3943.589844,4126.153809,4213.846191,4004.615479,3936.923096,443.000000,4.000000,,,,0.000000,4.000000,4.000000,0.000000,4.000000,4.000000,4.000000,4.000000,4.000000,4.000000,1.000000,4.000000,4.000000,4.000000,2.000000,25.000000
1602278985.789151,79.000000,0.000000,3883.589844,4549.743652,4160.512695,4203.589844,3924.102539,4590.769043,3944.615479,3855.384521,4294.871582,3951.794922,4153.846191,4232.307617,4028.205078,3947.179443,239.000000,4.000000,,,,0.000000,4.000000,4.000000,0.000000,4.000000,4.000000,4.000000,4.000000,4.000000,4.000000,1.000000,4.000000,4.000000,4.000000,2.000000,25.000000
1602278985.797078,80.000000,0.000000,3882.564209,4569.230957,4160.512695,4205.128418,3936.410156,4601.025879,3965.128174,3870.256348,4304.615234,3961.025635,4158.461426,4231.282227,4036.923096,3947.692383,427.000000,4.000000,,,,0.000000,4.000000,4.000000,0.000000,4.000000,4.000000,4.000000,4.000000,4.000000,4.000000,1.000000,4.000000,4.000000,4.000000,2.000000,25.000000
1602278985.804905,81.000000,0.000000,3873.333252,4568.205078,4159.487305,4197.948730,3939.487061,4578.974121,3960.512939,3873.846191,4307.179688,3953.846191,4145.641113,4221.538574,4028.205078,3944.102539,355.000000,4.000000,,,,0.000000,4.000000,4.000000,0.000000,4.000000,4.000000,4.000000,4.000000,4.000000,4.000000,1.000000,4.000000,4.000000,4.000000,2.000000,25.000000
1602278985.812732,82.000000,0.000000,3872.820557,4552.307617,4159.487305,4197.948730,3932.820557,4571.282227,3948.205078,3860.512939,4295.384766,3945.128174,4148.717773,4225.641113,4019.487061,3946.666748,443.000000,4.000000,,,,0.000000,4.000000,4.000000,0.000000,4.000000,4.000000,4.000000,4.000000,4.000000,4.000000,1.000000,4.000000,4.000000,4.000000,2.000000,25.000000
1602278985.820456,83.000000,0.000000,3872.307617,4553.333496,4162.051270,4202.051270,3931.794922,4571.282227,3940.512939,3827.179443,4269.230957,3943.589844,4149.230957,4227.692383,4017.948730,3945.641113,239.000000,4.000000,,,,0.000000,4.000000,4.000000,0.000000,4.000000,4.000000,4.000000,4.000000,4.000000,4.000000,1.000000,4.000000,4.000000,4.000000,2.000000,25.000000
1602278985.828280,84.000000,0.000000,3876.923096,4558.974121,4161.538574,4202.563965,3938.461426,4569.743652,3930.769287,3817.948730,4264.102539,3944.615479,4141.538574,4224.615234,4029.230713,3943.076904,427.000000,4.000000,,,,0.000000,4.000000,4.000000,0.000000,4.000000,4.000000,4.000000,4.000000,4.000000,4.000000,1.000000,4.000000,4.000000,4.000000,2.000000,25.000000
1602278985.836004,85.000000,0.000000,3889.743652,4547.179688,4157.436035,4197.436035,3936.410156,4575.897461,3928.718018,3845.128174,4288.717773,3947.179443,4148.205078,4233.846191,4038.974365,3948.205078,355.000000,4.000000,,,,0.000000,4.000000,4.000000,0.000000,4.000000,4.000000,4.000000,4.000000,4.000000,4.000000,1.000000,4.000000,4.000000,4.000000,2.000000,25.000000
1602278985.843828,86.000000,0.000000,3892.820557,4550.769043,4160.000000,4203.077148,3931.794922,4583.589844,3943.589844,3861.025635,4306.666504,3952.820557,4161.538574,4242.051270,4037.948730,3952.820557,443.000000,4.000000,,,,0.000000,4.000000,4.000000,0.000000,4.000000,4.000000,4.000000,4.000000,4.000000,4.000000,1.000000,4.000000,4.000000,4.000000,2.000000,25.000000
1602278985.851551,87.000000,0.000000,3876.410156,4570.769043,4161.538574,4214.358887,3922.051270,4583.077148,3951.281982,3853.333252,4299.487305,3952.820557,4155.384766,4232.307617,4036.410156,3946.666748,239.000000,4.000000,,,,0.000000,4.000000,4.000000,0.000000,4.000000,4.000000,4.000000,4.000000,4.000000,4.000000,1.000000,4.000000,4.000000,4.000000,2.000000,25.000000
1602278985.859477,88.000000,0.000000,3866.153809,4556.922852,4157.436035,4203.589844,3915.897461,4579.487305,3939.487061,3853.333252,4289.743652,3943.076904,4141.538574,4220.000000,4034.358887,3938.461426,427.000000,4.000000,,,,0.000000,4.000000,4.000000,0.000000,4.000000,4.000000,4.000000,4.000000,4.000000,4.000000,1.000000,4.000000,4.000000,4.000000,2.000000,25.000000
1602278985.867303,89.000000,0.000000,3867.692383,4532.307617,4153.846191,4185.641113,3927.179443,4568.717773,3927.692383,3848.718018,4283.077148,3937.948730,4132.820313,4208.717773,4020.512939,3932.307617,355.000000,4.000000,,,,0.000000,4.000000,4.000000,0.000000,4.000000,4.000000,4.000000,4.000000,4.000000,4.000000,1.000000,4.000000,4.000000,4.000000,2.000000,25.000000
1602278985.875228,90.000000,0.000000,3865.128174,4533.333496,4161.025879,4188.717773,3930.769287,4555.384766,3914.358887,3823.589844,4260.512695,3939.487061,4119.487305,4202.563965,3999.487061,3933.333252,443.000000,4.000000,,,,0.000000,4.000000,4.000000,0.000000,4.000000,4.000000,4.000000,4.000000,4.000000,4.000000,1.000000,4.000000,4.000000,4.000000,2.000000,25.000000
1602278985.883054,91.000000,0.000000,3870.256348,4537.436035,4164.615234,4197.436035,3926.153809,4566.153809,3916.923096,3819.487061,4255.384766,3941.538574,4123.077148,4214.358887,4004.615479,3939.487061,239.000000,4.000000,,,,0.000000,4.000000,4.000000,0.000000,4.000000,4.000000,4.000000,4.000000,4.000000,4.000000,1.000000,4.000000,4.000000,4.000000,2.000000,25.000000
1602278985.890980,92.000000,0.000000,3881.538574,4546.666504,4160.512695,4207.179688,3941.025635,4592.820313,3951.794922,3847.692383,4283.589844,3942.564209,4145.128418,4222.051270,4023.589844,3942.051270,427.000000,4.000000,,,,0.000000,4.000000,4.000000,0.000000,4.000000,4.000000,4.000000,4.000000,4.000000,4.000000,1.000000,4.000000,4.000000,4.000000,2.000000,25.000000
1602278985.898805,93.000000,0.000000,3876.410156,4570.256348,4157.948730,4217.948730,3952.820557,4592.307617,3961.538574,3856.923096,4293.846191,3941.538574,4146.153809,4209.743652,4015.897461,3934.871826,355.000000,4.000000,,,,0.000000,4.000000,4.000000,0.000000,4.000000,4.000000,4.000000,4.000000,4.000000,4.000000,1.000000,4.000000,4.000000,4.000000,2.000000,25.000000
1602278985.906730,94.000000,0.000000,3857.948730,4557.948730,4158.461426,4201.538574,3922.051270,4563.077148,3920.000000,3831.281982,4268.717773,3937.948730,4117.436035,4197.948730,3996.923096,3928.718018,443.000000,4.000000,,,,0.000000,4.000000,4.000000,0.000000,4.000000,4.000000,4.000000,4.000000,4.000000,4.000000,1.000000,4.000000,4.000000,4.000000,2.000000,25.000000
1602278985.914556,95.000000,0.000000,3862.564209,4530.256348,4157.436035,4181.538574,3902.051270,4560.512695,3915.897461,3833.333252,4265.128418,3941.025635,4120.000000,4202.051270,4012.307617,3934.871826,239.000000,4.000000,,,,0.000000,4.000000,4.000000,0.000000,4.000000,4.000000,4.000000,4.000000,4.000000,4.000000,1.000000,4.000000,4.000000,4.000000,2.000000,25.000000
1602278985.922481,96.000000,0.000000,3883.076904,4549.230957,4160.000000,4195.384766,3923.076904,4583.589844,3958.461426,3864.102539,4288.205078,3941.538574,4146.153809,4218.461426,4028.205078,3945.641113,427.000000,4.000000,,,,0.000000,4.000000,4.000000,0.000000,4.000000,4.000000,4.000000,4.000000,4.000000,4.000000,1.000000,4.000000,4.000000,4.000000,2.000000,25.000000
1602278985.930306,97.000000,0.000000,3878.974365,4561.025879,4158.974121,4204.102539,3929.743652,4577.948730,3956.410156,3864.615479,4287.692383,3934.358887,4126.153809,4229.743652,4009.230713,3944.615479,355.000000,4.000000,,,,0.000000,4.000000,4.000000,0.000000,4.000000,4.000000,4.000000,4.000000,4.000000,4.000000,1.000000,4.000000,4.000000,4.000000,2.000000,25.000000
1602278985.938031,98.000000,0.000000,3866.153809,4540.512695,4156.410156,4192.820313,3914.871826,4562.051270,3929.743652,3841.538574,4272.820313,3934.358887,4110.769043,4220.512695,4006.666748,3938.461426,443.000000,4.000000,,,,0.000000,4.000000,4.000000,0.000000,4.000000,4.000000,4.000000,4.000000,4.000000,4.000000,1.000000,4.000000,4.000000,4.000000,2.000000,25.000000
1602278985.945856,99.000000,0.000000,3871.281982,4547.692383,4160.000000,4203.589844,3922.564209,4573.333496,3938.461426,3832.820557,4272.307617,3942.051270,4146.153809,4209.743652,4025.641113,3940.000000,239.000000,4.000000,,,,0.000000,4.000000,4.000000,0.000000,4.000000,4.000000,4.000000,4.000000,4.000000,4.000000,1.000000,4.000000,4.000000,4.000000,2.000000,25.000000
1602278985.953581,100.000000,0.000000,3880.512939,4563.077148,4163.589844,4217.948730,3942.051270,4590.769043,3963.589844,3845.641113,4283.589844,3945.128174,4161.025879,4215.897461,4023.589844,3943.076904,427.000000,4.000000,,,,0.000000,4.000000,4.000000,0.000000,4.000000,4.000000,4.000000,4.000000,4.000000,4.000000,1.000000,4.000000,4.000000,4.000000,2.000000,25.000000
1602278985.961405,101.000000,0.000000,3867.179443,4534.871582,4160.000000,4191.794922,3927.179443,4577.436035,3948.718018,3849.743652,4285.128418,3942.564209,4133.846191,4213.333496,4013.333252,3939.487061,355.000000,4.000000,,,,0.000000,4.000000,4.000000,0.000000,4.000000,4.000000,4.000000,4.000000,4.000000,4.000000,1.000000,4.000000,4.000000,4.000000,2.000000,25.000000
1602278985.969130,102.000000,0.000000,3852.307617,4511.794922,4158.974121,4163.077148,3904.102539,4558.974121,3923.076904,3843.589844,4281.025879,3943.076904,4123.589844,4206.153809,4015.897461,3937.948730,443.000000,4.000000,,,,0.000000,4.000000,4.000000,0.000000,4.000000,4.000000,4.000000,4.000000,4.000000,4.000000,1.000000,4.000000,4.000000,4.000000,2.000000,25.000000
1602278985.976955,103.000000,0.000000,3863.076904,4529.230957,4163.077148,4172.307617,3910.769287,4573.846191,3943.076904,3852.307617,4292.307617,3948.205078,4131.282227,4218.461426,4020.000000,3943.076904,239.000000,4.000000,,,,0.000000,4.000000,4.000000,0.000000,4.000000,4.000000,4.000000,4.000000,4.000000,4.000000,1.000000,4.000000,4.000000,4.000000,2.000000,25.000000
1602278985.984679,104.000000,0.000000,3871.794922,4540.512695,4160.000000,4185.128418,3921.538574,4598.974121,3973.846191,3865.641113,4305.641113,3952.820557,4131.794922,4218.461426,4015.897461,3938.974365,427.000000,4.000000,,,,0.000000,4.000000,4.000000,0.000000,4.000000,4.000000,4.000000,4.000000,4.000000,4.000000,1.000000,4.000000,4.000000,4.000000,2.000000,25.000000
1602278985.992503,105.000000,0.000000,3867.179443,4542.051270,4159.487305,4187.692383,3923.076904,4598.974121,3971.281982,3861.538574,4306.666504,3957.435791,4143.589844,4203.077148,4016.410156,3936.410156,355.000000,4.000000,,,,0.000000,4.000000,4.000000,0.000000,4.000000,4.000000,4.000000,4.000000,4.000000,4.000000,1.000000,4.000000,4.000000,4.000000,2.000000,25.000000
1602278986.000227,106.000000,0.000000,3866.666748,4553.846191,4159.487305,4202.051270,3933.846191,4585.128418,3954.871826,3847.692383,4294.358887,3965.128174,4153.846191,4208.205078,4022.051270,3941.025635,443.000000,4.000000,,,,0.000000,4.000000,4.000000,0.000000,4.000000,4.000000,4.000000,4.000000,4.000000,4.000000,1.000000,4.000000,4.000000,4.000000,2.000000,25.000000
1602278986.008051,107.000000,0.000000,3871.794922,4566.666504,4158.974121,4212.820313,3943.589844,4575.384766,3949.230713,3846.153809,4285.641113,3971.794922,4142.051270,4220.512695,4028.205078,3942.051270,239.000000,4.000000,,,,0.000000,4.000000,4.000000,0.000000,4.000000,4.000000,4.000000,4.000000,4.000000,4.000000,1.000000,4.000000,4.000000,4.000000,2.000000,25.000000
1602278986.015775,108.000000,0.000000,3869.230713,4566.666504,4156.922852,4203.077148,3929.743652,4576.922852,3947.179443,3854.358887,4289.230957,3970.769287,4138.974121,4217.948730,4021.025635,3937.435791,427.000000,4.000000,,,,0.000000,4.000000,4.000000,0.000000,4.000000,4.000000,4.000000,4.000000,4.000000,4.000000,1.000000,4.000000,4.000000,4.000000,2.000000,25.000000
1602278986.023701,109.000000,0.000000,3868.205078,4563.589844,4157.948730,4189.230957,3914.871826,4583.077148,3962.564209,3859.487061,4299.487305,3970.256348,4151.282227,4220.000000,4005.128174,3940.512939,355.000000,4.000000,,,,0.000000,4.000000,4.000000,0.000000,4.000000,4.000000,4.000000,4.000000,4.000000,4.000000,1.000000,4.000000,4.000000,4.000000,2.000000,25.000000
1602278986.031528,110.000000,0.000000,3868.718018,4561.538574,4157.948730,4185.128418,3916.923096,4574.871582,3965.641113,3859.487061,4299.487305,3976.923096,4151.794922,4221.025879,4012.307617,3943.589844,443.000000,4.000000,,,,0.000000,4.000000,4.000000,0.000000,4.000000,4.000000,4.000000,4.000000,4.000000,4.000000,1.000000,4.000000,4.000000,4.000000,2.000000,25.000000
1602278986.039454,111.000000,0.000000,3864.615479,4560.000000,4161.538574,4186.666504,3923.076904,4561.538574,3935.384521,3860.000000,4288.205078,3985.128174,4148.205078,4214.871582,4041.025635,3941.538574,239.000000,4.000000,,,,0.000000,4.000000,4.000000,0.000000,4.000000,4.000000,4.000000,4.000000,4.000000,4.000000,1.000000,4.000000,4.000000,4.000000,2.000000,25.000000
1602278986.047280,112.000000,0.000000,3863.076904,4570.769043,4163.077148,4188.205078,3924.102539,4567.692383,3934.871826,3859.487061,4292.307617,3988.718018,4153.846191,4215.384766,4048.205078,3942.051270,427.000000,4.000000,,,,0.000000,4.000000,4.000000,0.000000,4.000000,4.000000,4.000000,4.000000,4.000000,4.000000,1.000000,4.000000,4.000000,4.000000,2.000000,25.000000
1602278986.055205,113.000000,0.000000,3863.076904,4577.436035,4160.000000,4192.307617,3920.000000,4569.743652,3954.358887,3850.256348,4302.563965,3986.153809,4149.230957,4212.820313,4024.102539,3942.051270,355.000000,4.000000,,,,0.000000,4.000000,4.000000,0.000000,4.000000,4.000000,4.000000,4.000000,4.000000,4.000000,1.000000,4.000000,4.000000,4.000000,2.000000,25.000000
1602278986.063031,114.000000,0.000000,3867.179443,4570.769043,4156.922852,4202.563965,3929.230713,4559.487305,3955.384521,3842.564209,4294.358887,3988.205078,4152.307617,4211.794922,4020.512939,3942.564209,443.000000,4.000000,,,,0.000000,4.000000,4.000000,0.000000,4.000000,4.000000,4.000000,4.000000,4.000000,4.000000,1.000000,4.000000,4.000000,4.000000,2.000000,25.000000
1602278986.070957,115.000000,0.000000,3874.358887,4564.615234,4159.487305,4205.641113,3951.794922,4564.615234,3952.307617,3846.666748,4288.717773,4001.538574,4165.128418,4224.615234,4035.384521,3947.692383,239.000000,4.000000,,,,0.000000,4.000000,4.000000,0.000000,4.000000,4.000000,4.000000,4.000000,4.000000,4.000000,1.000000,4.000000,4.000000,4.000000,2.000000,25.000000
1602278986.078782,116.000000,0.000000,3874.358887,4555.384766,4158.974121,4190.256348,3943.076904,4569.743652,3949.230713,3855.384521,4300.000000,4007.692383,4146.666504,4224.102539,4025.641113,3947.692383,427.000000,4.000000,,,,0.000000,4.000000,4.000000,0.000000,4.000000,4.000000,4.000000,4.000000,4.000000,4.000000,1.000000,4.000000,4.000000,4.000000,2.000000,25.000000
1602278986.086708,117.000000,0.000000,3873.333252,4546.666504,4156.410156,4182.563965,3907.179443,4573.333496,3950.769287,3863.589844,4307.692383,4002.051270,4136.410156,4214.358887,4027.179443,3944.615479,355.000000,4.000000,,,,0.000000,4.000000,4.000000,0.000000,4.000000,4.000000,4.000000,4.000000,4.000000,4.000000,1.000000,4.000000,4.000000,4.000000,2.000000,25.000000
1602278986.094533,118.000000,0.000000,3870.256348,4560.000000,4158.974121,4184.615234,3904.615479,4568.205078,3952.307617,3851.794922,4290.256348,4003.589844,4155.897461,4220.512695,4045.641113,3943.076904,443.000000,4.000000,,,,0.000000,4.000000,4.000000,0.000000,4.000000,4.000000,4.000000,4.000000,4.000000,4.000000,1.000000,4.000000,4.000000,4.000000,2.000000,25.000000
1602278986.102358,119.000000,0.000000,3863.076904,4570.769043,4162.051270,4181.025879,3933.333252,4550.769043,3940.000000,3836.410156,4273.846191,4015.897461,4148.205078,4222.563965,4028.718018,3939.487061,239.000000,4.000000,,,,0.000000,4.000000,4.000000,0.000000,4.000000,4.000000,4.000000,4.000000,4.000000,4.000000,1.000000,4.000000,4.000000,4.000000,2.000000,25.000000
1602278986.110183,120.000000,0.000000,3867.692383,4559.487305,4160.512695,4188.205078,3935.384521,4564.615234,3942.051270,3858.974365,4290.256348,4023.076904,4134.871582,4216.922852,4015.384521,3941.538574,427.000000,4.000000,,,,0.000000,4.000000,4.000000,0.000000,4.000000,4.000000,4.000000,4.000000,4.000000,4.000000,1.000000,4.000000,4.000000,4.000000,2.000000,25.000000
1602278986.117908,121.000000,0.000000,3876.923096,4559.487305,4157.948730,4203.077148,3924.102539,4591.794922,3966.666748,3878.974365,4315.897461,4017.948730,4149.230957,4224.615234,4042.564209,3946.666748,355.000000,4.000000,,,,0.000000,4.000000,4.000000,0.000000,4.000000,4.000000,4.000000,4.000000,4.000000,4.000000,1.000000,4.000000,4.000000,4.000000,2.000000,25.000000
1602278986.125733,122.000000,0.000000,3875.384521,4562.051270,4160.000000,4195.897461,3928.205078,4576.410156,3952.820557,3859.487061,4308.205078,4014.358887,4147.179688,4225.641113,4044.102539,3943.076904,443.000000,4.000000,,,,0.000000,4.000000,4.000000,0.000000,4.000000,4.000000,4.000000,4.000000,4.000000,4.000000,1.000000,4.000000,4.000000,4.000000,2.000000,25.000000
1602278986.133458,123.000000,0.000000,3869.230713,4557.948730,4160.512695,4179.487305,3929.230713,4548.717773,3917.435791,3843.076904,4285.128418,4017.435791,4132.820313,4210.256348,4013.333252,3937.948730,239.000000,4.000000,,,,0.000000,4.000000,4.000000,0.000000,4.000000,4.000000,4.000000,4.000000,4.000000,4.000000,1.000000,4.000000,4.000000,4.000000,2.000000,25.000000
1602278986.141283,124.000000,0.000000,3868.718018,4565.641113,4160.000000,4189.230957,3922.051270,4561.538574,3939.487061,3856.923096,4290.256348,4022.051270,4147.692383,4212.820313,4017.948730,3945.641113,427.000000,4.000000,,,,0.000000,4.000000,4.000000,0.000000,4.000000,4.000000,4.000000,4.000000,4.000000,4.000000,1.000000,4.000000,4.000000,4.000000,2.000000,25.000000
1602278986.149007,125.000000,0.000000,3870.769287,4572.820313,4158.461426,4204.615234,3928.718018,4581.538574,3976.410156,3863.076904,4303.077148,4029.230713,4160.000000,4226.666504,4046.666748,3950.256348,355.000000,4.000000,,,,0.000000,4.000000,4.000000,0.000000,4.000000,4.000000,4.000000,4.000000,4.000000,4.000000,1.000000,4.000000,4.000000,4.000000,2.000000,25.000000
1602278986.156832,126.000000,0.000000,3878.461426,4566.153809,4161.538574,4202.051270,3942.564209,4575.384766,3971.281982,3856.410156,4297.948730,4034.871826,4147.692383,4224.615234,4046.666748,3948.205078,443.000000,4.000000,,,,0.000000,4.000000,4.000000,0.000000,4.000000,4.000000,4.000000,4.000000,4.000000,4.000000,1.000000,4.000000,4.000000,4.000000,2.000000,25.000000
1602278986.164556,127.000000,0.000000,3881.538574,4571.282227,4161.025879,4198.461426,3929.743652,4568.205078,3956.923096,3869.743652,4301.538574,4037.435791,4137.436035,4214.871582,4035.384521,3947.179443,239.000000,4.000000,,,,0.000000,4.000000,4.000000,0.000000,4.000000,4.000000,4.000000,4.000000,4.000000,4.000000,1.000000,4.000000,4.000000,4.000000,2.000000,25.000000
1602278986.172380,128.000000,0.000000,3871.794922,4567.692383,4160.000000,4198.461426,3920.512939,4572.820313,3959.487061,3879.487061,4312.307617,4039.487061,4137.436035,4217.436035,4042.051270,3948.718018,427.000000,4.000000,,,,0.000000,4.000000,4.000000,0.000000,4.000000,4.000000,4.000000,4.000000,4.000000,4.000000,1.000000,4.000000,4.000000,4.000000,2.000000,25.000000
1602278986.180105,0.000000,0.000000,3870.769287,4552.307617,4160.512695,4201.538574,3944.102539,4576.410156,3960.000000,3868.718018,4311.282227,4046.666748,4147.179688,4222.051270,4038.461426,3948.205078,0.000000,4.000000,,,,0.000000,4.000000,4.000000,0.000000,4.000000,4.000000,4.000000,4.000000,4.000000,4.000000,1.000000,4.000000,4.000000,4.000000,2.000000,25.000000
1602278986.187929,1.000000,0.000000,3874.358887,4561.538574,4160.512695,4206.153809,3945.641113,4568.717773,3949.230713,3856.923096,4300.512695,4048.718018,4151.794922,4214.358887,4015.897461,3947.692383,421.000000,4.000000,,,,0.000000,4.000000,4.000000,0.000000,4.000000,4.000000,4.000000,4.000000,4.000000,4.000000,1.000000,4.000000,4.000000,4.000000,2.000000,25.000000
1602278986.195653,2.000000,0.000000,3870.256348,4576.410156,4160.000000,4200.512695,3917.435791,4571.794922,3948.205078,3855.384521,4300.512695,4044.615479,4142.563965,4207.692383,4025.641113,3947.179443,386.000000,4.000000,,,,0.000000,4.000000,4.000000,0.000000,4.000000,4.000000,4.000000,4.000000,4.000000,4.000000,1.000000,4.000000,4.000000,4.000000,2.000000,25.000000
1602278986.203477,3.000000,0.000000,3868.205078,4571.282227,4163.589844,4187.179688,3914.871826,4581.538574,3957.948730,3861.025635,4308.717773,4043.076904,4144.102539,4214.358887,4057.435791,3948.205078,446.000000,4.000000,,,,0.000000,4.000000,4.000000,0.000000,4.000000,4.000000,4.000000,4.000000,4.000000,4.000000,1.000000,4.000000,4.000000,4.000000,2.000000,25.000000
1602278986.211201,4.000000,0.000000,3871.281982,4557.436035,4163.077148,4190.256348,3935.897461,4578.974121,3966.666748,3868.205078,4316.410156,4042.051270,4160.512695,4222.563965,4054.358887,3952.307617,478.000000,4.000000,,,,0.000000,4.000000,4.000000,0.000000,4.000000,4.000000,4.000000,4.000000,4.000000,4.000000,1.000000,4.000000,4.000000,4.000000,2.000000,25.000000
1602278986.219024,5.000000,0.000000,3871.794922,4538.461426,4160.000000,4197.436035,3936.410156,4566.153809,3956.923096,3866.153809,4307.179688,4041.025635,4155.897461,4215.897461,4029.230713,3948.718018,411.000000,4.000000,,,,0.000000,4.000000,4.000000,0.000000,4.000000,4.000000,4.000000,4.000000,4.000000,4.000000,1.000000,4.000000,4.000000,4.000000,2.000000,25.000000
1602278986.226748,6.000000,0.000000,3869.743652,4534.871582,4164.102539,4192.820313,3926.153809,4555.384766,3931.281982,3854.358887,4285.128418,4038.974365,4131.794922,4205.128418,4014.871826,3942.051270,469.000000,4.000000,,,,0.000000,4.000000,4.000000,0.000000,4.000000,4.000000,4.000000,4.000000,4.000000,4.000000,1.000000,4.000000,4.000000,4.000000,2.000000,25.000000
1602278986.234674,7.000000,0.000000,3871.281982,4565.641113,4164.615234,4197.436035,3929.743652,4567.692383,3936.410156,3855.384521,4288.717773,4036.410156,4130.769043,4205.128418,4014.871826,3942.051270,392.000000,4.000000,,,,0.000000,4.000000,4.000000,0.000000,4.000000,4.000000,4.000000,4.000000,4.000000,4.000000,1.000000,4.000000,4.000000,4.000000,2.000000,25.000000
1602278986.242500,8.000000,0.000000,3872.307617,4574.871582,4158.461426,4199.487305,3935.897461,4584.615234,3967.179443,3868.718018,4311.794922,4036.410156,4142.563965,4210.769043,4027.692383,3944.102539,413.000000,4.000000,,,,0.000000,4.000000,4.000000,0.000000,4.000000,4.000000,4.000000,4.000000,4.000000,4.000000,1.000000,4.000000,4.000000,4.000000,2.000000,25.000000
1602278986.250425,9.000000,0.000000,3867.179443,4548.717773,4158.974121,4189.230957,3931.794922,4570.769043,3969.230713,3867.692383,4313.846191,4034.871826,4138.974121,4206.666504,4034.358887,3942.564209,52.000000,4.000000,,,,0.000000,4.000000,4.000000,0.000000,4.000000,4.000000,4.000000,4.000000,4.000000,4.000000,1.000000,4.000000,4.000000,4.000000,2.000000,25.000000
1602278986.258251,10.000000,0.000000,3859.487061,4548.205078,4161.538574,4192.820313,3921.025635,4549.230957,3949.230713,3852.307617,4297.948730,4029.743652,4131.794922,4199.487305,4026.666748,3942.051270,443.000000,4.000000,,,,0.000000,4.000000,4.000000,0.000000,4.000000,4.000000,4.000000,4.000000,4.000000,4.000000,1.000000,4.000000,4.000000,4.000000,2.000000,25.000000
1602278986.266176,11.000000,0.000000,3859.487061,4560.512695,4157.436035,4204.102539,3928.718018,4557.436035,3938.974365,3854.358887,4294.871582,4030.769287,4140.000000,4204.615234,4021.025635,3942.051270,240.000000,4.000000,,,,0.000000,4.000000,4.000000,0.000000,4.000000,4.000000,4.000000,4.000000,4.000000,4.000000,1.000000,4.000000,4.000000,4.000000,2.000000,25.000000
1602278986.274001,12.000000,0.000000,3870.256348,4556.410156,4162.563965,4201.025879,3945.128174,4570.769043,3943.076904,3876.923096,4306.666504,4036.923096,4156.410156,4217.436035,4038.461426,3947.692383,426.000000,4.000000,,,,0.000000,4.000000,4.000000,0.000000,4.000000,4.000000,4.000000,4.000000,4.000000,4.000000,1.000000,4.000000,4.000000,4.000000,2.000000,25.000000
1602278986.281826,13.000000,0.000000,3870.769287,4558.974121,4164.615234,4198.461426,3944.102539,4572.820313,3959.487061,3882.564209,4318.974121,4033.846191,4159.487305,4218.974121,4055.897461,3949.743652,356.000000,4.000000,,,,0.000000,4.000000,4.000000,0.000000,4.000000,4.000000,4.000000,4.000000,4.000000,4.000000,1.000000,4.000000,4.000000,4.000000,2.000000,25.000000
1602278986.289651,14.000000,0.000000,3864.615479,4573.333496,4158.974121,4203.589844,3940.512939,4582.051270,3980.000000,3870.256348,4324.102539,4023.076904,4150.256348,4213.846191,4035.897461,3943.589844,443.000000,4.000000,,,,0.000000,4.000000,4.000000,0.000000,4.000000,4.000000,4.000000,4.000000,4.000000,4.000000,1.000000,4.000000,4.000000,4.000000,2.000000,25.000000
1602278986.297376,15.000000,0.000000,3868.718018,4569.230957,4158.974121,4203.589844,3941.538574,4592.820313,3981.025635,3866.153809,4318.461426,4012.820557,4148.205078,4213.846191,4022.564209,3940.512939,240.000000,4.000000,,,,0.000000,4.000000,4.000000,0.000000,4.000000,4.000000,4.000000,4.000000,4.000000,4.000000,1.000000,4.000000,4.000000,4.000000,2.000000,25.000000
1602278986.305201,16.000000,0.000000,3874.871826,4556.922852,4165.128418,4204.102539,3927.692383,4578.974121,3962.051270,3864.102539,4306.153809,4005.641113,4152.820313,4214.358887,4041.538574,3944.615479,0.000000,4.000000,,,,0.000000,4.000000,4.000000,0.000000,4.000000,4.000000,4.000000,4.000000,4.000000,4.000000,1.000000,4.000000,4.000000,4.000000,2.000000,25.000000
1602278986.312926,17.000000,0.000000,3867.179443,4558.974121,4161.538574,4200.512695,3924.615479,4552.820313,3941.025635,3852.307617,4293.846191,4000.512939,4142.563965,4203.589844,4036.923096,3940.512939,0.000000,4.000000,,,,0.000000,4.000000,4.000000,0.000000,4.000000,4.000000,4.000000,4.000000,4.000000,4.000000,1.000000,4.000000,4.000000,4.000000,2.000000,25.000000
1602278986.320751,18.000000,0.000000,3867.692383,4558.461426,4158.974121,4198.461426,3946.666748,4551.794922,3933.333252,3846.153809,4288.205078,3989.743652,4130.769043,4198.461426,4011.794922,3939.487061,0.000000,4.000000,,,,0.000000,4.000000,4.000000,0.000000,4.000000,4.000000,4.000000,4.000000,4.000000,4.000000,1.000000,4.000000,4.000000,4.000000,2.000000,25.000000
1602278986.328475,19.000000,0.000000,3882.564209,4558.974121,4163.077148,4203.589844,3943.589844,4568.205078,3948.205078,3848.718018,4288.205078,3979.487061,4140.000000,4210.256348,4023.589844,3950.256348,0.000000,4.000000,,,,0.000000,4.000000,4.000000,0.000000,4.000000,4.000000,4.000000,4.000000,4.000000,4.000000,1.000000,4.000000,4.000000,4.000000,2.000000,25.000000
1602278986.336300,20.000000,0.000000,3877.948730,4562.051270,4162.563965,4202.051270,3918.974365,4562.563965,3952.307617,3849.743652,4285.128418,3976.923096,4145.641113,4211.794922,4036.410156,3948.205078,0.000000,4.000000,,,,0.000000,4.000000,4.000000,0.000000,4.000000,4.000000,4.000000,4.000000,4.000000,4.000000,1.000000,4.000000,4.000000,4.000000,2.000000,25.000000
1602278986.344024,21.000000,0.000000,3869.230713,4562.563965,4162.051270,4200.000000,3922.564209,4558.461426,3940.512939,3857.948730,4291.794922,3977.435791,4144.102539,4204.615234,4023.076904,3940.512939,0.000000,4.000000,,,,0.000000,4.000000,4.000000,0.000000,4.000000,4.000000,4.000000,4.000000,4.000000,4.000000,1.000000,4.000000,4.000000,4.000000,2.000000,25.000000
1602278986.351848,22.000000,0.000000,3882.564209,4569.743652,4163.589844,4211.794922,3939.487061,4577.948730,3955.897461,3872.307617,4310.769043,3980.000000,4159.487305,4213.333496,4032.307617,3948.718018,0.000000,4.000000,,,,0.000000,4.000000,4.000000,0.000000,4.000000,4.000000,4.000000,4.000000,4.000000,4.000000,1.000000,4.000000,4.000000,4.000000,2.000000,25.000000
1602278986.359572,23.000000,0.000000,3891.281982,4574.871582,4163.077148,4218.974121,3943.589844,4573.846191,3961.538574,3872.820557,4312.307617,3974.358887,4166.666504,4223.589844,4056.410156,3954.871826,0.000000,4.000000,,,,0.000000,4.000000,4.000000,0.000000,4.000000,4.000000,4.000000,4.000000,4.000000,4.000000,1.000000,4.000000,4.000000,4.000000,2.000000,25.000000
1602278986.367396,24.000000,0.000000,3882.051270,4570.256348,4157.948730,4216.410156,3945.128174,4551.794922,3932.307617,3860.000000,4292.820313,3960.512939,4152.820313,4212.307617,4053.333252,3944.102539,0.000000,4.000000,,,,0.000000,4.000000,4.000000,0.000000,4.000000,4.000000,4.000000,4.000000,4.000000,4.000000,1.000000,4.000000,4.000000,4.000000,2.000000,25.000000
1602278986.375120,25.000000,0.000000,3875.384521,4568.717773,4157.436035,4218.974121,3941.025635,4565.641113,3939.487061,3861.025635,4291.282227,3956.923096,4149.743652,4203.077148,4038.461426,3940.512939,0.000000,4.000000,,,,0.000000,4.000000,4.000000,0.000000,4.000000,4.000000,4.000000,4.000000,4.000000,4.000000,1.000000,4.000000,4.000000,4.000000,2.000000,25.000000
1602278986.383046,26.000000,0.000000,3878.461426,4574.358887,4160.512695,4221.025879,3934.871826,4593.846191,3985.641113,3879.487061,4313.846191,3960.512939,4156.922852,4208.717773,4038.974365,3947.692383,0.000000,4.000000,,,,0.000000,4.000000,4.000000,0.000000,4.000000,4.000000,4.000000,4.000000,4.000000,4.000000,1.000000,4.000000,4.000000,4.000000,2.000000,25.000000
1602278986.390872,27.000000,0.000000,3882.051270,4570.256348,4162.051270,4210.769043,3940.000000,4582.051270,3980.512939,3877.435791,4314.871582,3957.948730,4144.102539,4208.717773,4042.051270,3947.179443,0.000000,4.000000,,,,0.000000,4.000000,4.000000,0.000000,4.000000,4.000000,4.000000,4.000000,4.000000,4.000000,1.000000,4.000000,4.000000,4.000000,2.000000,25.000000
1602278986.398698,28.000000,0.000000,3881.025635,4571.794922,4159.487305,4202.051270,3949.743652,4558.974121,3948.205078,3857.948730,4295.897461,3952.307617,4135.897461,4200.512695,4033.333252,3941.025635,0.000000,4.000000,,,,0.000000,4.000000,4.000000,0.000000,4.000000,4.000000,4.000000,4.000000,4.000000,4.000000,1.000000,4.000000,4.000000,4.000000,2.000000,25.000000
1602278986.406422,29.000000,0.000000,3885.128174,4594.358887,4159.487305,4215.897461,3950.256348,4573.846191,3960.512939,3861.025635,4302.051270,3953.333252,4161.538574,4207.692383,4042.051270,3946.153809,0.000000,4.000000,,,,0.000000,4.000000,4.000000,0.000000,4.000000,4.000000,4.000000,4.000000,4.000000,4.000000,1.000000,4.000000,4.000000,4.000000,2.000000,25.000000
1602278986.414348,30.000000,0.000000,3890.769287,4612.820313,4160.000000,4234.358887,3943.076904,4590.256348,3962.564209,3871.794922,4315.897461,3958.974365,4177.436035,4218.974121,4064.615479,3952.307617,0.000000,4.000000,,,,0.000000,4.000000,4.000000,0.000000,4.000000,4.000000,4.000000,4.000000,4.000000,4.000000,1.000000,4.000000,4.000000,4.000000,2.000000,25.000000
1602278986.422174,31.000000,0.000000,3889.230713,4601.025879,4162.051270,4231.794922,3937.435791,4575.384766,3937.948730,3862.051270,4300.512695,3954.871826,4157.948730,4213.333496,4061.538574,3950.769287,0.000000,4.000000,,,,0.000000,4.000000,4.000000,0.000000,4.000000,4.000000,4.000000,4.000000,4.000000,4.000000,1.000000,4.000000,4.000000,4.000000,2.000000,25.000000
1602278986.430099,32.000000,0.000000,3888.718018,4573.333496,4160.512695,4226.153809,3946.666748,4565.641113,3949.743652,3860.000000,4291.794922,3945.641113,4147.179688,4207.692383,4037.948730,3948.205078,0.000000,4.000000,,,,0.000000,4.000000,4.000000,0.000000,4.000000,4.000000,4.000000,4.000000,4.000000,4.000000,1.000000,4.000000,4.000000,4.000000,2.000000,25.000000
1602278986.437925,33.000000,0.000000,3893.846191,4573.333496,4160.000000,4231.282227,3962.051270,4571.282227,3974.358887,3873.846191,4311.282227,3952.307617,4160.512695,4213.846191,4036.923096,3951.281982,0.000000,4.000000,,,,0.000000,4.000000,4.000000,0.000000,4.000000,4.000000,4.000000,4.000000,4.000000,4.000000,1.000000,4.000000,4.000000,4.000000,2.000000,25.000000
1602278986.445850,34.000000,0.000000,3888.718018,4598.974121,4160.512695,4228.205078,3956.410156,4567.692383,3965.641113,3872.307617,4315.384766,3960.000000,4166.153809,4212.820313,4051.794922,3952.307617,0.000000,4.000000,,,,0.000000,4.000000,4.000000,0.000000,4.000000,4.000000,4.000000,4.000000,4.000000,4.000000,1.000000,4.000000,4.000000,4.000000,2.000000,25.000000
1602278986.453675,35.000000,0.000000,3876.923096,4590.256348,4160.512695,4210.256348,3937.948730,4563.077148,3945.641113,3859.487061,4294.871582,3948.718018,4158.461426,4199.487305,4048.205078,3945.641113,0.000000,4.000000,,,,0.000000,4.000000,4.000000,0.000000,4.000000,4.000000,4.000000,4.000000,4.000000,4.000000,1.000000,4.000000,4.000000,4.000000,2.000000,25.000000
1602278986.461600,36.000000,0.000000,3880.000000,4559.487305,4161.025879,4206.153809,3932.307617,4564.615234,3940.512939,3855.384521,4288.205078,3942.051270,4151.794922,4192.820313,4043.589844,3941.025635,0.000000,4.000000,,,,0.000000,4.000000,4.000000,0.000000,4.000000,4.000000,4.000000,4.000000,4.000000,4.000000,1.000000,4.000000,4.000000,4.000000,2.000000,25.000000
1602278986.469425,37.000000,0.000000,3887.179443,4574.871582,4163.589844,4216.410156,3938.974365,4563.077148,3952.820557,3864.102539,4307.179688,3950.256348,4154.358887,4198.461426,4054.358887,3947.179443,0.000000,4.000000,,,,0.000000,4.000000,4.000000,0.000000,4.000000,4.000000,4.000000,4.000000,4.000000,4.000000,1.000000,4.000000,4.000000,4.000000,2.000000,25.000000
1602278986.477151,38.000000,0.000000,3887.179443,4608.205078,4163.589844,4228.205078,3945.641113,4565.641113,3962.051270,3872.820557,4321.025879,3954.358887,4164.615234,4206.153809,4061.538574,3955.897461,0.000000,4.000000,,,,0.000000,4.000000,4.000000,0.000000,4.000000,4.000000,4.000000,4.000000,4.000000,4.000000,1.000000,4.000000,4.000000,4.000000,2.000000,25.000000
1602278986.484976,39.000000,0.000000,3888.718018,4598.461426,4162.051270,4232.820313,3949.230713,4573.846191,3954.871826,3866.666748,4309.743652,3953.846191,4168.205078,4209.230957,4057.435791,3955.384521,0.000000,4.000000,,,,0.000000,4.000000,4.000000,0.000000,4.000000,4.000000,4.000000,4.000000,4.000000,4.000000,1.000000,4.000000,4.000000,4.000000,2.000000,25.000000
1602278986.492701,40.000000,0.000000,3889.230713,4579.487305,4163.589844,4224.102539,3954.358887,4581.025879,3957.435791,3860.000000,4297.948730,3952.820557,4162.563965,4205.641113,4046.153809,3951.281982,0.000000,4.000000,,,,0.000000,4.000000,4.000000,0.000000,4.000000,4.000000,4.000000,4.000000,4.000000,4.000000,1.000000,4.000000,4.000000,4.000000,2.000000,25.000000
1602278986.500525,41.000000,0.000000,3882.051270,4581.025879,4160.512695,4211.794922,3944.102539,4578.461426,3969.743652,3862.051270,4298.974121,3944.615479,4151.282227,4198.461426,4034.871826,3946.666748,0.000000,4.000000,,,,0.000000,4.000000,4.000000,0.000000,4.000000,4.000000,4.000000,4.000000,4.000000,4.000000,1.000000,4.000000,4.000000,4.000000,2.000000,25.000000
1602278986.508250,42.000000,0.000000,3878.461426,4580.000000,4161.025879,4215.897461,3928.205078,4567.179688,3966.153809,3867.179443,4301.538574,3940.512939,4143.589844,4199.487305,4030.769287,3945.128174,0.000000,4.000000,,,,0.000000,4.000000,4.000000,0.000000,4.000000,4.000000,4.000000,4.000000,4.000000,4.000000,1.000000,4.000000,4.000000,4.000000,2.000000,25.000000
1602278986.516074,43.000000,0.000000,3883.589844,4575.897461,4162.051270,4226.153809,3941.538574,4557.948730,3955.384521,3864.615479,4302.051270,3947.179443,4148.205078,4205.128418,4031.281982,3947.179443,0.000000,4.000000,,,,0.000000,4.000000,4.000000,0.000000,4.000000,4.000000,4.000000,4.000000,4.000000,4.000000,1.000000,4.000000,4.000000,4.000000,2.000000,25.000000
1602278986.523799,44.000000,0.000000,3882.564209,4584.102539,4161.025879,4222.051270,3963.589844,4557.436035,3950.256348,3855.897461,4299.487305,3948.205078,4155.897461,4201.025879,4039.487061,3950.769287,0.000000,4.000000,,,,0.000000,4.000000,4.000000,0.000000,4.000000,4.000000,4.000000,4.000000,4.000000,4.000000,1.000000,4.000000,4.000000,4.000000,2.000000,25.000000
1602278986.531623,45.000000,0.000000,3882.051270,4596.922852,4159.487305,4223.077148,3947.692383,4574.358887,3961.538574,3859.487061,4302.563965,3945.128174,4159.487305,4200.512695,4057.948730,3953.333252,0.000000,4.000000,,,,0.000000,4.000000,4.000000,0.000000,4.000000,4.000000,4.000000,4.000000,4.000000,4.000000,1.000000,4.000000,4.000000,4.000000,2.000000,25.000000
1602278986.539347,46.000000,0.000000,3886.666748,4601.025879,4161.025879,4234.358887,3932.307617,4590.769043,3977.435791,3877.435791,4318.461426,3948.205078,4162.563965,4208.717773,4063.589844,3955.897461,0.000000,4.000000,,,,0.000000,4.000000,4.000000,0.000000,4.000000,4.000000,4.000000,4.000000,4.000000,4.000000,1.000000,4.000000,4.000000,4.000000,2.000000,25.000000
1602278986.547171,47.000000,0.000000,3882.051270,4592.820313,4161.025879,4231.282227,3947.692383,4587.692383,3966.666748,3878.974365,4318.461426,3947.179443,4157.436035,4207.692383,4055.384521,3952.820557,0.000000,4.000000,,,,0.000000,4.000000,4.000000,0.000000,4.000000,4.000000,4.000000,4.000000,4.000000,4.000000,1.000000,4.000000,4.000000,4.000000,2.000000,25.000000
1602278986.554895,48.000000,0.000000,3877.948730,4576.922852,4162.563965,4217.436035,3952.307617,4581.025879,3953.333252,3865.128174,4301.025879,3942.564209,4151.282227,4201.538574,4049.230713,3949.230713,0.000000,4.000000,,,,0.000000,4.000000,4.000000,0.000000,4.000000,4.000000,4.000000,4.000000,4.000000,4.000000,1.000000,4.000000,4.000000,4.000000,2.000000,25.000000
1602278986.562821,49.000000,0.000000,3882.051270,4573.333496,4162.051270,4215.897461,3942.564209,4574.358887,3958.974365,3860.512939,4300.000000,3944.102539,4159.487305,4200.512695,4046.153809,3948.718018,0.000000,4.000000,,,,0.000000,4.000000,4.000000,0.000000,4.000000,4.000000,4.000000,4.000000,4.000000,4.000000,1.000000,4.000000,4.000000,4.000000,2.000000,25.000000
1602278986.570647,50.000000,0.000000,3886.153809,4578.461426,4162.563965,4227.692383,3940.000000,4564.102539,3959.487061,3866.153809,4310.256348,3945.641113,4169.743652,4201.025879,4051.794922,3951.281982,0.000000,4.000000,,,,0.000000,4.000000,4.000000,0.000000,4.000000,4.000000,4.000000,4.000000,4.000000,4.000000,1.000000,4.000000,4.000000,4.000000,2.000000,25.000000
1602278986.578573,51.000000,0.000000,3889.743652,4578.461426,4162.051270,4234.871582,3941.025635,4567.179688,3958.461426,3872.307617,4313.333496,3945.128174,4170.769043,4204.102539,4058.974365,3957.435791,0.000000,4.000000,,,,0.000000,4.000000,4.000000,0.000000,4.000000,4.000000,4.000000,4.000000,4.000000,4.000000,1.000000,4.000000,4.000000,4.000000,2.000000,25.000000
1602278986.586399,52.000000,0.000000,3889.743652,4581.025879,4159.487305,4230.256348,3952.820557,4577.436035,3962.051270,3872.307617,4312.307617,3945.641113,4170.256348,4203.077148,4052.820557,3957.948730,0.000000,4.000000,,,,0.000000,4.000000,4.000000,0.000000,4.000000,4.000000,4.000000,4.000000,4.000000,4.000000,1.000000,4.000000,4.000000,4.000000,2.000000,25.000000
1602278986.594325,53.000000,0.000000,3880.000000,4587.179688,4160.512695,4225.128418,3953.846191,4570.256348,3958.974365,3864.615479,4306.666504,3941.538574,4169.230957,4195.897461,4042.051270,3950.256348,0.000000,4.000000,,,,0.000000,4.000000,4.000000,0.000000,4.000000,4.000000,4.000000,4.000000,4.000000,4.000000,1.000000,4.000000,4.000000,4.000000,2.000000,25.000000
1602278986.602150,54.000000,0.000000,3875.384521,4582.563965,4163.077148,4226.666504,3931.794922,4567.179688,3955.897461,3858.461426,4296.922852,3937.948730,4162.051270,4191.282227,4034.358887,3945.128174,0.000000,4.000000,,,,0.000000,4.000000,4.000000,0.000000,4.000000,4.000000,4.000000,4.000000,4.000000,4.000000,1.000000,4.000000,4.000000,4.000000,2.000000,25.000000
1602278986.610076,55.000000,0.000000,3879.487061,4570.769043,4161.025879,4228.205078,3940.512939,4570.256348,3956.923096,3855.897461,4292.307617,3938.461426,4158.461426,4188.205078,4029.743652,3944.615479,0.000000,4.000000,,,,0.000000,4.000000,4.000000,0.000000,4.000000,4.000000,4.000000,4.000000,4.000000,4.000000,1.000000,4.000000,4.000000,4.000000,2.000000,25.000000
1602278986.617902,56.000000,0.000000,3878.974365,4581.025879,4158.974121,4224.615234,3967.179443,4565.641113,3947.179443,3852.820557,4290.256348,3938.974365,4162.563965,4181.538574,4029.743652,3940.000000,0.000000,4.000000,,,,0.000000,4.000000,4.000000,0.000000,4.000000,4.000000,4.000000,4.000000,4.000000,4.000000,1.000000,4.000000,4.000000,4.000000,2.000000,25.000000
1602278986.625827,57.000000,0.000000,3878.974365,4588.717773,4164.102539,4218.461426,3945.128174,4564.615234,3940.000000,3846.666748,4284.102539,3940.512939,4157.948730,4180.000000,4026.666748,3939.487061,0.000000,4.000000,,,,0.000000,4.000000,4.000000,0.000000,4.000000,4.000000,4.000000,4.000000,4.000000,4.000000,1.000000,4.000000,4.000000,4.000000,2.000000,25.000000
1602278986.633652,58.000000,0.000000,3885.641113,4578.461426,4162.563965,4220.512695,3929.230713,4576.922852,3960.000000,3851.794922,4292.820313,3942.564209,4153.846191,4186.153809,4025.641113,3946.153809,0.000000,4.000000,,,,0.000000,4.000000,4.000000,0.000000,4.000000,4.000000,4.000000,4.000000,4.000000,4.000000,1.000000,4.000000,4.000000,4.000000,2.000000,25.000000
1602278986.641577,59.000000,0.000000,3887.692383,4591.794922,4157.948730,4231.794922,3959.487061,4584.102539,3988.205078,3867.179443,4314.358887,3941.538574,4172.820313,4194.871582,4040.000000,3950.769287,0.000000,4.000000,,,,0.000000,4.000000,4.000000,0.000000,4.000000,4.000000,4.000000,4.000000,4.000000,4.000000,1.000000,4.000000,4.000000,4.000000,2.000000,25.000000
1602278986.649402,60.000000,0.000000,3881.025635,4604.615234,4158.461426,4233.846191,3967.179443,4572.820313,3976.923096,3869.743652,4313.333496,3943.589844,4188.205078,4196.922852,4051.281982,3950.769287,0.000000,4.000000,,,,0.000000,4.000000,4.000000,0.000000,4.000000,4.000000,4.000000,4.000000,4.000000,4.000000,1.000000,4.000000,4.000000,4.000000,2.000000,25.000000
1602278986.657127,61.000000,0.000000,3878.974365,4587.692383,4164.102539,4222.051270,3941.538574,4562.563965,3944.615479,3858.974365,4295.897461,3943.589844,4174.871582,4191.282227,4050.256348,3952.820557,0.000000,4.000000,,,,0.000000,4.000000,4.000000,0.000000,4.000000,4.000000,4.000000,4.000000,4.000000,4.000000,1.000000,4.000000,4.000000,4.000000,2.000000,25.000000
1602278986.664952,62.000000,0.000000,3885.641113,4585.641113,4161.538574,4218.974121,3946.153809,4569.743652,3954.358887,3862.051270,4300.512695,3932.820557,4164.615234,4192.307617,4049.743652,3952.307617,0.000000,4.000000,,,,0.000000,4.000000,4.000000,0.000000,4.000000,4.000000,4.000000,4.000000,4.000000,4.000000,1.000000,4.000000,4.000000,4.000000,2.000000,25.000000
1602278986.672677,63.000000,0.000000,3891.281982,4595.897461,4161.538574,4232.307617,3960.512939,4578.461426,3980.000000,3874.358887,4314.358887,3929.743652,4172.307617,4197.436035,4047.179443,3952.820557,0.000000,4.000000,,,,0.000000,4.000000,4.000000,0.000000,4.000000,4.000000,4.000000,4.000000,4.000000,4.000000,1.000000,4.000000,4.000000,4.000000,2.000000,25.000000
1602278986.680502,64.000000,0.000000,3888.718018,4576.922852,4163.077148,4234.871582,3944.102539,4574.358887,3968.718018,3866.666748,4306.153809,3936.410156,4173.333496,4188.717773,4029.743652,3951.794922,0.000000,4.000000,,,,0.000000,4.000000,4.000000,0.000000,4.000000,4.000000,4.000000,4.000000,4.000000,4.000000,1.000000,4.000000,4.000000,4.000000,2.000000,25.000000
1602278986.688227,65.000000,0.000000,3884.615479,4564.615234,4159.487305,4222.051270,3942.051270,4568.205078,3949.230713,3848.718018,4294.358887,3930.769287,4163.077148,4176.922852,4021.025635,3948.205078,421.000000,4.000000,,,,0.000000,4.000000,4.000000,0.000000,4.000000,4.000000,4.000000,4.000000,4.000000,4.000000,1.000000,4.000000,4.000000,4.000000,2.000000,25.000000
1602278986.696051,66.000000,0.000000,3879.487061,4593.846191,4158.461426,4220.000000,3964.615479,4572.820313,3952.820557,3850.769287,4303.077148,3927.692383,4159.487305,4179.487305,4038.974365,3945.641113,386.000000,4.000000,,,,0.000000,4.000000,4.000000,0.000000,4.000000,4.000000,4.000000,4.000000,4.000000,4.000000,1.000000,4.000000,4.000000,4.000000,2.000000,25.000000
1602278986.703775,67.000000,0.000000,3877.435791,4603.077148,4163.589844,4223.077148,3962.564209,4567.692383,3955.897461,3864.615479,4308.205078,3933.846191,4166.666504,4182.051270,4051.794922,3948.205078,446.000000,4.000000,,,,0.000000,4.000000,4.000000,0.000000,4.000000,4.000000,4.000000,4.000000,4.000000,4.000000,1.000000,4.000000,4.000000,4.000000,2.000000,25.000000
1602278986.711600,68.000000,0.000000,3882.051270,4584.615234,4160.512695,4222.051270,3943.076904,4552.307617,3946.666748,3866.153809,4301.025879,3932.307617,4170.769043,4180.000000,4046.153809,3949.230713,478.000000,4.000000,,,,0.000000,4.000000,4.000000,0.000000,4.000000,4.000000,4.000000,4.000000,4.000000,4.000000,1.000000,4.000000,4.000000,4.000000,2.000000,25.000000
1602278986.719324,69.000000,0.000000,3889.230713,4590.769043,4155.897461,4230.256348,3947.692383,4567.179688,3958.461426,3871.281982,4308.205078,3931.281982,4172.307617,4190.256348,4052.820557,3952.307617,411.000000,4.000000,,,,0.000000,4.000000,4.000000,0.000000,4.000000,4.000000,4.000000,4.000000,4.000000,4.000000,1.000000,4.000000,4.000000,4.000000,2.000000,25.000000
1602278986.727148,70.000000,0.000000,3890.769287,4605.128418,4159.487305,4234.358887,3962.564209,4592.307617,3976.410156,3882.564209,4321.538574,3935.897461,4172.820313,4197.948730,4054.871826,3957.435791,469.000000,4.000000,,,,0.000000,4.000000,4.000000,0.000000,4.000000,4.000000,4.000000,4.000000,4.000000,4.000000,1.000000,4.000000,4.000000,4.000000,2.000000,25.000000
1602278986.734872,71.000000,0.000000,3887.692383,4597.436035,4163.077148,4230.769043,3967.179443,4582.563965,3969.743652,3881.538574,4315.897461,3931.794922,4171.282227,4192.307617,4036.923096,3952.307617,392.000000,4.000000,,,,0.000000,4.000000,4.000000,0.000000,4.000000,4.000000,4.000000,4.000000,4.000000,4.000000,1.000000,4.000000,4.000000,4.000000,2.000000,25.000000
1602278986.742696,72.000000,0.000000,3889.230713,4591.282227,4162.051270,4230.769043,3970.256348,4578.974121,3961.538574,3877.948730,4312.820313,3926.153809,4171.794922,4188.717773,4038.461426,3950.256348,413.000000,4.000000,,,,0.000000,4.000000,4.000000,0.000000,4.000000,4.000000,4.000000,4.000000,4.000000,4.000000,1.000000,4.000000,4.000000,4.000000,2.000000,25.000000
1602278986.750420,73.000000,0.000000,3887.692383,4592.820313,4158.974121,4222.563965,3958.461426,4582.563965,3962.564209,3880.000000,4321.025879,3926.153809,4165.641113,4183.077148,4054.871826,3953.333252,52.000000,4.000000,,,,0.000000,4.000000,4.000000,0.000000,4.000000,4.000000,4.000000,4.000000,4.000000,4.000000,1.000000,4.000000,4.000000,4.000000,2.000000,25.000000
1602278986.758244,74.000000,0.000000,3883.076904,4590.769043,4162.563965,4211.282227,3947.179443,4563.077148,3958.461426,3877.435791,4313.333496,3923.589844,4163.077148,4180.000000,4052.820557,3955.384521,443.000000,4.000000,,,,0.000000,4.000000,4.000000,0.000000,4.000000,4.000000,4.000000,4.000000,4.000000,4.000000,1.000000,4.000000,4.000000,4.000000,2.000000,25.000000
1602278986.765967,75.000000,0.000000,3885.128174,4593.846191,4164.615234,4227.179688,3954.358887,4564.102539,3964.615479,3878.974365,4308.717773,3925.641113,4178.974121,4190.256348,4053.846191,3959.487061,240.000000,4.000000,,,,0.000000,4.000000,4.000000,0.000000,4.000000,4.000000,4.000000,4.000000,4.000000,4.000000,1.000000,4.000000,4.000000,4.000000,2.000000,25.000000
1602278986.773893,76.000000,0.000000,3885.128174,4598.461426,4159.487305,4237.948730,3958.461426,4583.589844,3972.307617,3877.948730,4319.487305,3928.205078,4183.077148,4190.256348,4052.820557,3962.051270,426.000000,4.000000,,,,0.000000,4.000000,4.000000,0.000000,4.000000,4.000000,4.000000,4.000000,4.000000,4.000000,1.000000,4.000000,4.000000,4.000000,2.000000,25.000000
1602278986.781718,77.000000,0.000000,3874.871826,4587.179688,4154.358887,4227.692383,3953.846191,4570.256348,3955.384521,3868.205078,4314.358887,3924.615479,4165.128418,4175.384766,4038.461426,3951.794922,356.000000,4.000000,,,,0.000000,4.000000,4.000000,0.000000,4.000000,4.000000,4.000000,4.000000,4.000000,4.000000,1.000000,4.000000,4.000000,4.000000,2.000000,25.000000
1602278986.789644,78.000000,0.000000,3875.384521,4583.589844,4161.025879,4226.153809,3947.179443,4560.000000,3946.153809,3871.281982,4305.641113,3926.153809,4166.666504,4174.871582,4048.718018,3945.128174,443.000000,4.000000,,,,0.000000,4.000000,4.000000,0.000000,4.000000,4.000000,4.000000,4.000000,4.000000,4.000000,1.000000,4.000000,4.000000,4.000000,2.000000,25.000000
1602278986.797469,79.000000,0.000000,3888.205078,4598.461426,4164.615234,4231.282227,3948.718018,4578.974121,3966.153809,3889.743652,4322.563965,3929.230713,4183.589844,4183.077148,4072.307617,3949.230713,240.000000,4.000000,,,,0.000000,4.000000,4.000000,0.000000,4.000000,4.000000,4.000000,4.000000,4.000000,4.000000,1.000000,4.000000,4.000000,4.000000,2.000000,25.000000
1602278986.805395,80.000000,0.000000,3888.718018,4598.461426,4161.025879,4231.282227,3957.948730,4580.512695,3980.512939,3893.333252,4333.846191,3926.153809,4177.948730,4182.051270,4061.025635,3950.769287,426.000000,4.000000,,,,0.000000,4.000000,4.000000,0.000000,4.000000,4.000000,4.000000,4.000000,4.000000,4.000000,1.000000,4.000000,4.000000,4.000000,2.000000,25.000000
1602278986.813220,81.000000,0.000000,3878.461426,4587.179688,4157.948730,4234.871582,3953.846191,4570.256348,3974.358887,3879.487061,4324.615234,3924.615479,4164.615234,4179.487305,4047.179443,3946.666748,356.000000,4.000000,,,,0.000000,4.000000,4.000000,0.000000,4.000000,4.000000,4.000000,4.000000,4.000000,4.000000,1.000000,4.000000,4.000000,4.000000,2.000000,25.000000
1602278986.821145,82.000000,0.000000,3872.307617,4589.743652,4163.077148,4226.666504,3934.871826,4580.000000,3964.615479,3871.794922,4316.922852,3925.128174,4161.025879,4176.410156,4053.333252,3945.641113,443.000000,4.000000,,,,0.000000,4.000000,4.000000,0.000000,4.000000,4.000000,4.000000,4.000000,4.000000,4.000000,1.000000,4.000000,4.000000,4.000000,2.000000,25.000000
1602278986.828971,83.000000,0.000000,3871.281982,4590.256348,4163.077148,4206.153809,3944.102539,4593.846191,3969.230713,3880.512939,4315.897461,3923.589844,4164.615234,4175.384766,4044.615479,3946.153809,240.000000,4.000000,,,,0.000000,4.000000,4.000000,0.000000,4.000000,4.000000,4.000000,4.000000,4.000000,4.000000,1.000000,4.000000,4.000000,4.000000,2.000000,25.000000
1602278986.836896,84.000000,0.000000,3867.179443,4577.436035,4157.436035,4202.563965,3955.384521,4585.128418,3967.692383,3887.692383,4316.922852,3923.076904,4167.179688,4178.974121,4029.743652,3942.051270,426.000000,4.000000,,,,0.000000,4.000000,4.000000,0.000000,4.000000,4.000000,4.000000,4.000000,4.000000,4.000000,1.000000,4.000000,4.000000,4.000000,2.000000,25.000000
1602278986.844720,85.000000,0.000000,3862.564209,4575.897461,4155.897461,4214.871582,3937.435791,4561.025879,3953.846191,3878.461426,4314.358887,3924.102539,4161.538574,4176.410156,4038.974365,3937.435791,356.000000,4.000000,,,,0.000000,4.000000,4.000000,0.000000,4.000000,4.000000,4.000000,4.000000,4.000000,4.000000,1.000000,4.000000,4.000000,4.000000,2.000000,25.000000
1602278986.852445,86.000000,0.000000,3864.615479,4578.974121,4156.922852,4218.974121,3939.487061,4560.512695,3956.410156,3873.333252,4308.717773,3923.589844,4158.974121,4170.769043,4047.692383,3939.487061,443.000000,4.000000,,,,0.000000,4.000000,4.000000,0.000000,4.000000,4.000000,4.000000,4.000000,4.000000,4.000000,1.000000,4.000000,4.000000,4.000000,2.000000,25.000000
1602278986.860270,87.000000,0.000000,3872.307617,4575.897461,4157.948730,4215.897461,3958.974365,4587.692383,3974.871826,3880.512939,4310.769043,3924.615479,4168.717773,4175.384766,4043.589844,3948.205078,240.000000,4.000000,,,,0.000000,4.000000,4.000000,0.000000,4.000000,4.000000,4.000000,4.000000,4.000000,4.000000,1.000000,4.000000,4.000000,4.000000,2.000000,25.000000
1602278986.867995,88.000000,0.000000,3874.358887,4580.512695,4158.974121,4212.820313,3950.769287,4587.692383,3974.871826,3879.487061,4315.384766,3925.641113,4175.897461,4182.563965,4041.025635,3949.743652,426.000000,4.000000,,,,0.000000,4.000000,4.000000,0.000000,4.000000,4.000000,4.000000,4.000000,4.000000,4.000000,1.000000,4.000000,4.000000,4.000000,2.000000,25.000000
1602278986.875819,89.000000,0.000000,3870.769287,4582.051270,4158.461426,4216.410156,3935.897461,4561.025879,3954.358887,3872.820557,4310.769043,3924.102539,4168.205078,4175.897461,4044.102539,3945.128174,356.000000,4.000000,,,,0.000000,4.000000,4.000000,0.000000,4.000000,4.000000,4.000000,4.000000,4.000000,4.000000,1.000000,4.000000,4.000000,4.000000,2.000000,25.000000
1602278986.883544,90.000000,0.000000,3875.384521,4590.256348,4154.871582,4230.769043,3947.692383,4571.794922,3957.948730,3885.128174,4316.410156,3925.128174,4169.743652,4173.846191,4057.948730,3945.128174,443.000000,4.000000,,,,0.000000,4.000000,4.000000,0.000000,4.000000,4.000000,4.000000,4.000000,4.000000,4.000000,1.000000,4.000000,4.000000,4.000000,2.000000,25.000000
1602278986.891368,91.000000,0.000000,3890.256348,4617.948730,4160.000000,4242.051270,3956.923096,4598.461426,3978.461426,3894.358887,4331.794922,3925.641113,4185.128418,4186.153809,4077.948730,3950.769287,240.000000,4.000000,,,,0.000000,4.000000,4.000000,0.000000,4.000000,4.000000,4.000000,4.000000,4.000000,4.000000,1.000000,4.000000,4.000000,4.000000,2.000000,25.000000
1602278986.899092,92.000000,0.000000,3898.974365,4625.641113,4164.615234,4236.410156,3955.384521,4589.743652,3982.051270,3883.076904,4328.717773,3926.666748,4187.179688,4189.743652,4075.384521,3952.820557,426.000000,4.000000,,,,0.000000,4.000000,4.000000,0.000000,4.000000,4.000000,4.000000,4.000000,4.000000,4.000000,1.000000,4.000000,4.000000,4.000000,2.000000,25.000000
1602278986.906917,93.000000,0.000000,3895.897461,4592.820313,4160.000000,4223.077148,3962.564209,4570.256348,3963.076904,3875.897461,4314.358887,3927.692383,4174.358887,4183.077148,4045.128174,3953.333252,356.000000,4.000000,,,,0.000000,4.000000,4.000000,0.000000,4.000000,4.000000,4.000000,4.000000,4.000000,4.000000,1.000000,4.000000,4.000000,4.000000,2.000000,25.000000
1602278986.914641,94.000000,0.000000,3886.666748,4578.974121,4154.871582,4219.487305,3956.923096,4565.128418,3942.051270,3862.051270,4293.846191,3920.512939,4166.666504,4177.436035,4028.718018,3949.230713,443.000000,4.000000,,,,0.000000,4.000000,4.000000,0.000000,4.000000,4.000000,4.000000,4.000000,4.000000,4.000000,1.000000,4.000000,4.000000,4.000000,2.000000,25.000000
1602278986.922465,95.000000,0.000000,3881.538574,4601.025879,4160.512695,4232.820313,3937.948730,4566.666504,3940.512939,3847.692383,4283.077148,3911.794922,4167.692383,4176.410156,4042.051270,3943.076904,240.000000,4.000000,,,,0.000000,4.000000,4.000000,0.000000,4.000000,4.000000,4.000000,4.000000,4.000000,4.000000,1.000000,4.000000,4.000000,4.000000,2.000000,25.000000
1602278986.930188,96.000000,0.000000,3884.102539,4608.205078,4163.589844,4243.589844,3941.025635,4577.948730,3956.923096,3870.256348,4306.666504,3917.948730,4168.205078,4175.897461,4061.025635,3944.102539,426.000000,4.000000,,,,0.000000,4.000000,4.000000,0.000000,4.000000,4.000000,4.000000,4.000000,4.000000,4.000000,1.000000,4.000000,4.000000,4.000000,2.000000,25.000000
1602278986.938012,97.000000,0.000000,3889.230713,4597.948730,4162.051270,4240.512695,3965.128174,4591.282227,3976.923096,3896.410156,4334.358887,3929.743652,4171.794922,4181.538574,4068.205078,3954.871826,356.000000,4.000000,,,,0.000000,4.000000,4.000000,0.000000,4.000000,4.000000,4.000000,4.000000,4.000000,4.000000,1.000000,4.000000,4.000000,4.000000,2.000000,25.000000
1602278986.945736,98.000000,0.000000,3887.179443,4598.974121,4159.487305,4230.769043,3965.128174,4589.230957,3977.435791,3881.025635,4325.128418,3929.743652,4170.769043,4181.025879,4058.461426,3954.358887,443.000000,4.000000,,,,0.000000,4.000000,4.000000,0.000000,4.000000,4.000000,4.000000,4.000000,4.000000,4.000000,1.000000,4.000000,4.000000,4.000000,2.000000,25.000000
1602278986.953559,99.000000,0.000000,3878.461426,4604.102539,4160.512695,4224.102539,3946.666748,4583.077148,3967.692383,3863.076904,4304.102539,3928.718018,4167.692383,4172.820313,4050.769287,3947.179443,240.000000,4.000000,,,,0.000000,4.000000,4.000000,0.000000,4.000000,4.000000,4.000000,4.000000,4.000000,4.000000,1.000000,4.000000,4.000000,4.000000,2.000000,25.000000
1602278986.961283,100.000000,0.000000,3871.281982,4588.717773,4161.025879,4218.974121,3949.230713,4572.307617,3959.487061,3863.076904,4298.974121,3929.743652,4169.743652,4171.282227,4050.256348,3947.179443,426.000000,4.000000,,,,0.000000,4.000000,4.000000,0.000000,4.000000,4.000000,4.000000,4.000000,4.000000,4.000000,1.000000,4.000000,4.000000,4.000000,2.000000,25.000000
1602278986.969208,101.000000,0.000000,3873.333252,4576.922852,4158.974121,4217.948730,3950.256348,4563.589844,3953.846191,3865.128174,4301.025879,3923.589844,4167.179688,4176.922852,4052.820557,3950.769287,356.000000,4.000000,,,,0.000000,4.000000,4.000000,0.000000,4.000000,4.000000,4.000000,4.000000,4.000000,4.000000,1.000000,4.000000,4.000000,4.000000,2.000000,25.000000
1602278986.977034,102.000000,0.000000,3885.128174,4592.820313,4155.897461,4223.077148,3943.589844,4580.000000,3961.538574,3879.487061,4315.897461,3923.076904,4171.794922,4180.512695,4063.076904,3956.410156,443.000000,4.000000,,,,0.000000,4.000000,4.000000,0.000000,4.000000,4.000000,4.000000,4.000000,4.000000,4.000000,1.000000,4.000000,4.000000,4.000000,2.000000,25.000000
1602278986.984959,103.000000,0.000000,3891.794922,4611.282227,4155.384766,4233.333496,3962.564209,4604.615234,3978.461426,3897.948730,4338.461426,3928.718018,4185.641113,4181.025879,4073.333252,3960.000000,240.000000,4.000000,,,,0.000000,4.000000,4.000000,0.000000,4.000000,4.000000,4.000000,4.000000,4.000000,4.000000,1.000000,4.000000,4.000000,4.000000,2.000000,25.000000
1602278986.992785,104.000000,0.000000,3888.718018,4600.000000,4158.974121,4238.974121,3980.000000,4600.512695,3987.692383,3889.230713,4332.820313,3927.179443,4181.538574,4181.025879,4067.179443,3956.410156,426.000000,4.000000,,,,0.000000,4.000000,4.000000,0.000000,4.000000,4.000000,4.000000,4.000000,4.000000,4.000000,1.000000,4.000000,4.000000,4.000000,2.000000,25.000000
1602278987.000710,105.000000,0.000000,3882.051270,4580.512695,4158.461426,4231.794922,3954.358887,4575.384766,3966.666748,3870.769287,4306.153809,3920.512939,4162.563965,4173.846191,4043.076904,3948.205078,356.000000,4.000000,,,,0.000000,4.000000,4.000000,0.000000,4.000000,4.000000,4.000000,4.000000,4.000000,4.000000,1.000000,4.000000,4.000000,4.000000,2.000000,25.000000
1602278987.008535,106.000000,0.000000,3882.051270,4585.128418,4158.974121,4218.974121,3938.461426,4573.846191,3956.410156,3876.923096,4305.641113,3924.102539,4168.717773,4171.282227,4042.051270,3949.230713,443.000000,4.000000,,,,0.000000,4.000000,4.000000,0.000000,4.000000,4.000000,4.000000,4.000000,4.000000,4.000000,1.000000,4.000000,4.000000,4.000000,2.000000,25.000000
1602278987.016460,107.000000,0.000000,3890.769287,4595.384766,4160.000000,4219.487305,3951.281982,4596.410156,3986.153809,3886.153809,4322.563965,3931.281982,4187.692383,4182.051270,4068.205078,3952.820557,240.000000,4.000000,,,,0.000000,4.000000,4.000000,0.000000,4.000000,4.000000,4.000000,4.000000,4.000000,4.000000,1.000000,4.000000,4.000000,4.000000,2.000000,25.000000
1602278987.024284,108.000000,0.000000,3893.333252,4587.179688,4161.538574,4228.717773,3944.615479,4591.794922,3982.564209,3865.641113,4309.230957,3925.641113,4170.769043,4177.948730,4065.641113,3952.307617,426.000000,4.000000,,,,0.000000,4.000000,4.000000,0.000000,4.000000,4.000000,4.000000,4.000000,4.000000,4.000000,1.000000,4.000000,4.000000,4.000000,2.000000,25.000000
1602278987.032209,109.000000,0.000000,3887.692383,4582.563965,4160.512695,4233.846191,3949.743652,4563.077148,3944.615479,3856.410156,4291.794922,3917.948730,4145.641113,4162.051270,4037.948730,3948.205078,356.000000,4.000000,,,,0.000000,4.000000,4.000000,0.000000,4.000000,4.000000,4.000000,4.000000,4.000000,4.000000,1.000000,4.000000,4.000000,4.000000,2.000000,25.000000
1602278987.040034,110.000000,0.000000,3894.358887,4604.102539,4163.077148,4233.333496,3972.307617,4567.179688,3956.923096,3877.435791,4308.205078,3920.512939,4158.461426,4169.743652,4043.076904,3952.820557,443.000000,4.000000,,,,0.000000,4.000000,4.000000,0.000000,4.000000,4.000000,4.000000,4.000000,4.000000,4.000000,1.000000,4.000000,4.000000,4.000000,2.000000,25.000000
1602278987.047758,111.000000,0.000000,3898.974365,4620.000000,4162.563965,4235.897461,3949.743652,4595.384766,3988.718018,3878.974365,4322.051270,3926.666748,4177.436035,4184.615234,4060.512939,3957.948730,240.000000,4.000000,,,,0.000000,4.000000,4.000000,0.000000,4.000000,4.000000,4.000000,4.000000,4.000000,4.000000,1.000000,4.000000,4.000000,4.000000,2.000000,25.000000
1602278987.055583,112.000000,0.000000,3888.205078,4605.641113,4160.512695,4235.897461,3927.179443,4589.230957,3965.641113,3856.923096,4303.589844,3925.641113,4168.717773,4175.384766,4044.615479,3954.358887,426.000000,4.000000,,,,0.000000,4.000000,4.000000,0.000000,4.000000,4.000000,4.000000,4.000000,4.000000,4.000000,1.000000,4.000000,4.000000,4.000000,2.000000,25.000000
1602278987.063307,113.000000,0.000000,3883.589844,4586.666504,4158.974121,4225.128418,3958.461426,4557.436035,3936.410156,3852.307617,4286.666504,3922.051270,4157.948730,4160.000000,4034.358887,3946.153809,356.000000,4.000000,,,,0.000000,4.000000,4.000000,0.000000,4.000000,4.000000,4.000000,4.000000,4.000000,4.000000,1.000000,4.000000,4.000000,4.000000,2.000000,25.000000
1602278987.071132,114.000000,0.000000,3886.666748,4579.487305,4160.512695,4212.820313,3970.256348,4549.230957,3943.076904,3859.487061,4286.153809,3922.051270,4155.897461,4163.077148,4049.743652,3945.128174,443.000000,4.000000,,,,0.000000,4.000000,4.000000,0.000000,4.000000,4.000000,4.000000,4.000000,4.000000,4.000000,1.000000,4.000000,4.000000,4.000000,2.000000,25.000000
1602278987.078856,115.000000,0.000000,3886.153809,4586.666504,4161.025879,4222.051270,3955.384521,4571.282227,3958.461426,3866.666748,4305.128418,3924.615479,4162.563965,4171.794922,4058.461426,3951.794922,240.000000,4.000000,,,,0.000000,4.000000,4.000000,0.000000,4.000000,4.000000,4.000000,4.000000,4.000000,4.000000,1.000000,4.000000,4.000000,4.000000,2.000000,25.000000
1602278987.086782,116.000000,0.000000,3891.281982,4609.230957,4160.512695,4247.179688,3964.102539,4597.436035,3975.384521,3880.000000,4329.230957,3927.692383,4177.948730,4176.410156,4068.718018,3956.923096,426.000000,4.000000,,,,0.000000,4.000000,4.000000,0.000000,4.000000,4.000000,4.000000,4.000000,4.000000,4.000000,1.000000,4.000000,4.000000,4.000000,2.000000,25.000000
1602278987.094608,117.000000,0.000000,3897.948730,4625.641113,4160.512695,4253.846191,3969.230713,4600.000000,3978.974365,3884.615479,4324.102539,3926.153809,4182.051270,4175.384766,4075.384521,3955.897461,356.000000,4.000000,,,,0.000000,4.000000,4.000000,0.000000,4.000000,4.000000,4.000000,4.000000,4.000000,4.000000,1.000000,4.000000,4.000000,4.000000,2.000000,25.000000
1602278987.102435,118.000000,0.000000,3893.333252,4618.974121,4160.000000,4243.589844,3962.564209,4583.077148,3964.615479,3871.794922,4303.589844,3923.076904,4170.256348,4171.282227,4058.461426,3953.333252,443.000000,4.000000,,,,0.000000,4.000000,4.000000,0.000000,4.000000,4.000000,4.000000,4.000000,4.000000,4.000000,1.000000,4.000000,4.000000,4.000000,2.000000,25.000000
1602278987.110158,119.000000,0.000000,3890.256348,4607.179688,4160.000000,4242.563965,3968.205078,4572.820313,3955.897461,3863.076904,4296.922852,3921.538574,4164.615234,4168.205078,4047.179443,3954.358887,240.000000,4.000000,,,,0.000000,4.000000,4.000000,0.000000,4.000000,4.000000,4.000000,4.000000,4.000000,4.000000,1.000000,4.000000,4.000000,4.000000,2.000000,25.000000
1602278987.118084,120.000000,0.000000,3894.358887,4600.512695,4161.025879,4245.641113,3965.128174,4572.820313,3958.461426,3868.205078,4296.922852,3921.538574,4168.205078,4168.205078,4059.487061,3955.384521,426.000000,4.000000,,,,0.000000,4.000000,4.000000,0.000000,4.000000,4.000000,4.000000,4.000000,4.000000,4.000000,1.000000,4.000000,4.000000,4.000000,2.000000,25.000000
1602278987.125910,121.000000,0.000000,3899.487061,4596.410156,4163.589844,4248.717773,3963.076904,4582.051270,3963.076904,3876.923096,4301.025879,3925.641113,4172.820313,4175.897461,4068.718018,3959.487061,356.000000,4.000000,,,,0.000000,4.000000,4.000000,0.000000,4.000000,4.000000,4.000000,4.000000,4.000000,4.000000,1.000000,4.000000,4.000000,4.000000,2.000000,25.000000
1602278987.133836,122.000000,0.000000,3900.512939,4606.666504,4162.563965,4243.077148,3969.230713,4590.256348,3969.743652,3878.461426,4312.820313,3924.615479,4170.769043,4176.922852,4060.512939,3956.923096,443.000000,4.000000,,,,0.000000,4.000000,4.000000,0.000000,4.000000,4.000000,4.000000,4.000000,4.000000,4.000000,1.000000,4.000000,4.000000,4.000000,2.000000,25.000000
1602278987.141662,123.000000,0.000000,3901.538574,4621.025879,4159.487305,4237.436035,3964.102539,4583.589844,3971.281982,3873.846191,4313.333496,3918.974365,4165.128418,4169.230957,4055.384521,3950.256348,240.000000,4.000000,,,,0.000000,4.000000,4.000000,0.000000,4.000000,4.000000,4.000000,4.000000,4.000000,4.000000,1.000000,4.000000,4.000000,4.000000,2.000000,25.000000
1602278987.149587,124.000000,0.000000,3901.025635,4615.897461,4155.897461,4238.461426,3965.641113,4573.846191,3959.487061,3870.256348,4303.589844,3920.000000,4168.717773,4164.102539,4056.410156,3950.256348,426.000000,4.000000,,,,0.000000,4.000000,4.000000,0.000000,4.000000,4.000000,4.000000,4.000000,4.000000,4.000000,1.000000,4.000000,4.000000,4.000000,2.000000,25.000000
1602278987.157413,125.000000,0.000000,3898.461426,4611.794922,4160.000000,4235.897461,3969.230713,4575.384766,3955.897461,3876.923096,4303.589844,3924.615479,4172.820313,4164.102539,4052.820557,3955.384521,356.000000,4.000000,,,,0.000000,4.000000,4.000000,0.000000,4.000000,4.000000,4.000000,4.000000,4.000000,4.000000,1.000000,4.000000,4.000000,4.000000,2.000000,25.000000
1602278987.165338,126.000000,0.000000,3901.538574,4622.051270,4164.102539,4240.000000,3960.000000,4585.641113,3969.230713,3884.102539,4309.743652,3927.179443,4177.436035,4170.769043,4062.051270,3958.461426,443.000000,4.000000,,,,0.000000,4.000000,4.000000,0.000000,4.000000,4.000000,4.000000,4.000000,4.000000,4.000000,1.000000,4.000000,4.000000,4.000000,2.000000,25.000000
1602278987.173163,127.000000,0.000000,3905.128174,4612.820313,4163.589844,4247.692383,3967.179443,4590.256348,3968.205078,3870.769287,4305.128418,3928.205078,4186.153809,4177.948730,4074.358887,3958.974365,240.000000,4.000000,,,,0.000000,4.000000,4.000000,0.000000,4.000000,4.000000,4.000000,4.000000,4.000000,4.000000,1.000000,4.000000,4.000000,4.000000,2.000000,25.000000
1602278987.181088,128.000000,0.000000,3901.025635,4600.512695,4160.000000,4244.102539,3982.051270,4586.666504,3961.025635,3863.589844,4300.512695,3927.692383,4192.307617,4178.461426,4067.692383,3957.948730,426.000000,4.000000,,,,0.000000,4.000000,4.000000,0.000000,4.000000,4.000000,4.000000,4.000000,4.000000,4.000000,1.000000,4.000000,4.000000,4.000000,2.000000,25.000000
1602278987.188914,0.000000,0.000000,3899.487061,4617.948730,4163.589844,4243.077148,3966.666748,4584.102539,3968.718018,3876.923096,4311.794922,3925.641113,4191.794922,4174.871582,4060.000000,3958.974365,0.000000,4.000000,,,,0.000000,4.000000,4.000000,0.000000,4.000000,4.000000,4.000000,4.000000,4.000000,4.000000,1.000000,4.000000,4.000000,4.000000,2.000000,25.000000
1602278987.196838,1.000000,0.000000,3903.076904,4634.358887,4164.615234,4252.820313,3949.743652,4585.641113,3970.256348,3884.102539,4322.563965,3927.179443,4191.794922,4175.897461,4075.897461,3959.487061,421.000000,4.000000,,,,0.000000,4.000000,4.000000,0.000000,4.000000,4.000000,4.000000,4.000000,4.000000,4.000000,1.000000,4.000000,4.000000,4.000000,2.000000,25.000000
1602278987.204663,2.000000,0.000000,3903.589844,4624.615234,4160.512695,4249.230957,3963.076904,4589.743652,3968.718018,3878.461426,4315.897461,3929.743652,4200.000000,4177.948730,4091.794922,3958.974365,386.000000,4.000000,,,,0.000000,4.000000,4.000000,0.000000,4.000000,4.000000,4.000000,4.000000,4.000000,4.000000,1.000000,4.000000,4.000000,4.000000,2.000000,25.000000
1602278987.212388,3.000000,0.000000,3897.435791,4606.666504,4161.025879,4232.820313,3965.128174,4584.615234,3973.846191,3866.153809,4301.025879,3929.230713,4200.512695,4171.282227,4075.897461,3957.435791,446.000000,4.000000,,,,0.000000,4.000000,4.000000,0.000000,4.000000,4.000000,4.000000,4.000000,4.000000,4.000000,1.000000,4.000000,4.000000,4.000000,2.000000,25.000000
1602278987.220213,4.000000,0.000000,3894.358887,4596.922852,4163.077148,4229.743652,3947.692383,4578.974121,3970.769287,3861.538574,4299.487305,3928.718018,4187.179688,4164.102539,4058.974365,3955.897461,478.000000,4.000000,,,,0.000000,4.000000,4.000000,0.000000,4.000000,4.000000,4.000000,4.000000,4.000000,4.000000,1.000000,4.000000,4.000000,4.000000,2.000000,25.000000
1602278987.227938,5.000000,0.000000,3902.051270,4604.102539,4160.000000,4238.461426,3957.948730,4588.205078,3973.333252,3879.487061,4316.922852,3929.230713,4184.102539,4173.333496,4072.307617,3958.974365,411.000000,4.000000,,,,0.000000,4.000000,4.000000,0.000000,4.000000,4.000000,4.000000,4.000000,4.000000,4.000000,1.000000,4.000000,4.000000,4.000000,2.000000,25.000000
1602278987.235762,6.000000,0.000000,3909.230713,4621.538574,4160.512695,4246.153809,3976.410156,4606.666504,3997.435791,3905.128174,4338.461426,3929.230713,4200.000000,4192.307617,4092.307617,3966.666748,469.000000,4.000000,,,,0.000000,4.000000,4.000000,0.000000,4.000000,4.000000,4.000000,4.000000,4.000000,4.000000,1.000000,4.000000,4.000000,4.000000,2.000000,25.000000
1602278987.243487,7.000000,0.000000,3905.641113,4618.461426,4164.102539,4243.589844,3956.410156,4609.230957,3998.974365,3907.179443,4338.461426,3928.718018,4205.641113,4193.333496,4082.051270,3964.615479,392.000000,4.000000,,,,0.000000,4.000000,4.000000,0.000000,4.000000,4.000000,4.000000,4.000000,4.000000,4.000000,1.000000,4.000000,4.000000,4.000000,2.000000,25.000000
1602278987.251311,8.000000,0.000000,3901.538574,4607.692383,4161.538574,4234.358887,3948.718018,4593.333496,3977.948730,3892.307617,4323.589844,3928.718018,4193.846191,4177.948730,4057.435791,3952.820557,413.000000,4.000000,,,,0.000000,4.000000,4.000000,0.000000,4.000000,4.000000,4.000000,4.000000,4.000000,4.000000,1.000000,4.000000,4.000000,4.000000,2.000000,25.000000
1602278987.259035,9.000000,0.000000,3900.512939,4613.333496,4158.974121,4231.282227,3973.333252,4591.282227,3981.025635,3890.256348,4318.461426,3930.256348,4187.692383,4173.333496,4050.256348,3948.718018,52.000000,4.000000,,,,0.000000,4.000000,4.000000,0.000000,4.000000,4.000000,4.000000,4.000000,4.000000,4.000000,1.000000,4.000000,4.000000,4.000000,2.000000,25.000000
1602278987.266860,10.000000,0.000000,3890.256348,4617.436035,4158.461426,4232.820313,3965.641113,4598.974121,3983.076904,3889.230713,4313.333496,3929.743652,4183.077148,4170.256348,4052.820557,3945.128174,443.000000,4.000000,,,,0.000000,4.000000,4.000000,0.000000,4.000000,4.000000,4.000000,4.000000,4.000000,4.000000,1.000000,4.000000,4.000000,4.000000,2.000000,25.000000
1602278987.274584,11.000000,0.000000,3887.692383,4616.410156,4158.974121,4243.077148,3948.205078,4589.743652,3970.769287,3881.538574,4309.230957,3927.692383,4178.461426,4162.051270,4056.923096,3941.025635,237.000000,4.000000,,,,0.000000,4.000000,4.000000,0.000000,4.000000,4.000000,4.000000,4.000000,4.000000,4.000000,1.000000,4.000000,4.000000,4.000000,2.000000,25.000000
1602278987.282408,12.000000,0.000000,3897.435791,4617.436035,4156.922852,4252.820313,3967.692383,4587.692383,3982.564209,3877.948730,4316.410156,3930.769287,4186.666504,4162.563965,4069.743652,3944.102539,426.000000,4.000000,,,,0.000000,4.000000,4.000000,0.000000,4.000000,4.000000,4.000000,4.000000,4.000000,4.000000,1.000000,4.000000,4.000000,4.000000,2.000000,25.000000
1602278987.290132,13.000000,0.000000,3895.384521,4615.384766,4159.487305,4244.615234,3971.794922,4601.538574,3992.307617,3881.538574,4321.538574,3932.820557,4193.333496,4168.717773,4071.794922,3949.743652,356.000000,4.000000,,,,0.000000,4.000000,4.000000,0.000000,4.000000,4.000000,4.000000,4.000000,4.000000,4.000000,1.000000,4.000000,4.000000,4.000000,2.000000,25.000000
1602278987.297956,14.000000,0.000000,3882.051270,4606.153809,4160.512695,4226.666504,3956.410156,4601.025879,3975.897461,3886.666748,4321.538574,3928.718018,4181.025879,4169.743652,4053.333252,3947.692383,443.000000,4.000000,,,,0.000000,4.000000,4.000000,0.000000,4.000000,4.000000,4.000000,4.000000,4.000000,4.000000,1.000000,4.000000,4.000000,4.000000,2.000000,25.000000
1602278987.305680,15.000000,0.000000,3887.692383,4597.436035,4161.538574,4227.179688,3963.589844,4592.307617,3978.461426,3894.871826,4329.230957,3930.256348,4182.563965,4170.256348,4056.923096,3949.230713,237.000000,4.000000,,,,0.000000,4.000000,4.000000,0.000000,4.000000,4.000000,4.000000,4.000000,4.000000,4.000000,1.000000,4.000000,4.000000,4.000000,2.000000,25.000000
1602278987.313605,16.000000,0.000000,3904.102539,4611.794922,4159.487305,4245.128418,3967.179443,4604.615234,4002.051270,3907.692383,4342.563965,3941.538574,4210.256348,4178.461426,4094.871826,3958.461426,0.000000,4.000000,,,,0.000000,4.000000,4.000000,0.000000,4.000000,4.000000,4.000000,4.000000,4.000000,4.000000,1.000000,4.000000,4.000000,4.000000,2.000000,25.000000
1602278987.321431,17.000000,0.000000,3902.564209,4625.128418,4158.461426,4240.512695,3951.794922,4605.128418,3991.281982,3902.564209,4337.948730,3943.076904,4213.846191,4180.000000,4105.128418,3959.487061,0.000000,4.000000,,,,0.000000,4.000000,4.000000,0.000000,4.000000,4.000000,4.000000,4.000000,4.000000,4.000000,1.000000,4.000000,4.000000,4.000000,2.000000,25.000000
1602278987.329356,18.000000,0.000000,3894.871826,4605.641113,4162.051270,4228.717773,3952.307617,4585.128418,3971.281982,3891.794922,4327.179688,3936.410156,4198.461426,4178.974121,4089.743652,3953.846191,0.000000,4.000000,,,,0.000000,4.000000,4.000000,0.000000,4.000000,4.000000,4.000000,4.000000,4.000000,4.000000,1.000000,4.000000,4.000000,4.000000,2.000000,25.000000
1602278987.337182,19.000000,0.000000,3906.666748,4601.538574,4164.102539,4252.307617,3971.794922,4598.461426,3992.307617,3909.743652,4342.563965,3940.000000,4212.307617,4191.794922,4096.922852,3960.512939,0.000000,4.000000,,,,0.000000,4.000000,4.000000,0.000000,4.000000,4.000000,4.000000,4.000000,4.000000,4.000000,1.000000,4.000000,4.000000,4.000000,2.000000,25.000000
1602278987.345107,20.000000,0.000000,3916.923096,4625.641113,4160.000000,4266.666504,3985.641113,4624.102539,4014.871826,3919.487061,4356.922852,3946.153809,4225.128418,4201.538574,4097.436035,3966.666748,0.000000,4.000000,,,,0.000000,4.000000,4.000000,0.000000,4.000000,4.000000,4.000000,4.000000,4.000000,4.000000,1.000000,4.000000,4.000000,4.000000,2.000000,25.000000
1602278987.352933,21.000000,0.000000,3909.230713,4628.717773,4159.487305,4250.769043,3982.564209,4618.461426,4007.179443,3900.512939,4343.589844,3943.589844,4209.743652,4194.871582,4076.923096,3958.974365,0.000000,4.000000,,,,0.000000,4.000000,4.000000,0.000000,4.000000,4.000000,4.000000,4.000000,4.000000,4.000000,1.000000,4.000000,4.000000,4.000000,2.000000,25.000000
1602278987.360858,22.000000,0.000000,3905.128174,4628.717773,4165.641113,4254.871582,3968.718018,4604.615234,3993.846191,3890.256348,4327.692383,3933.846191,4197.948730,4187.179688,4077.948730,3954.358887,0.000000,4.000000,,,,0.000000,4.000000,4.000000,0.000000,4.000000,4.000000,4.000000,4.000000,4.000000,4.000000,1.000000,4.000000,4.000000,4.000000,2.000000,25.000000
1602278987.368683,23.000000,0.000000,3906.666748,4640.000000,4165.128418,4269.743652,3966.666748,4601.025879,3988.718018,3894.358887,4322.563965,3927.179443,4191.794922,4184.102539,4082.564209,3953.333252,0.000000,4.000000,,,,0.000000,4.000000,4.000000,0.000000,4.000000,4.000000,4.000000,4.000000,4.000000,4.000000,1.000000,4.000000,4.000000,4.000000,2.000000,25.000000
1602278987.376608,24.000000,0.000000,3905.641113,4629.230957,4161.025879,4259.487305,3974.358887,4608.717773,3995.384521,3898.974365,4325.641113,3928.718018,4187.692383,4182.563965,4070.769287,3953.846191,0.000000,4.000000,,,,0.000000,4.000000,4.000000,0.000000,4.000000,4.000000,4.000000,4.000000,4.000000,4.000000,1.000000,4.000000,4.000000,4.000000,2.000000,25.000000
1602278987.384433,25.000000,0.000000,3906.666748,4620.000000,4162.563965,4249.230957,3969.743652,4614.871582,3997.948730,3907.692383,4332.820313,3932.820557,4195.897461,4182.563965,4076.410156,3953.846191,0.000000,4.000000,,,,0.000000,4.000000,4.000000,0.000000,4.000000,4.000000,4.000000,4.000000,4.000000,4.000000,1.000000,4.000000,4.000000,4.000000,2.000000,25.000000
1602278987.392358,26.000000,0.000000,3907.179443,4628.205078,4166.153809,4249.230957,3968.718018,4601.025879,3979.487061,3901.025635,4325.641113,3935.897461,4194.871582,4175.897461,4090.256348,3949.230713,0.000000,4.000000,,,,0.000000,4.000000,4.000000,0.000000,4.000000,4.000000,4.000000,4.000000,4.000000,4.000000,1.000000,4.000000,4.000000,4.000000,2.000000,25.000000
1602278987.400183,27.000000,0.000000,3900.512939,4626.153809,4163.077148,4245.641113,3976.410156,4593.846191,3976.410156,3892.820557,4318.461426,3939.487061,4184.615234,4169.230957,4086.153809,3945.641113,0.000000,4.000000,,,,0.000000,4.000000,4.000000,0.000000,4.000000,4.000000,4.000000,4.000000,4.000000,4.000000,1.000000,4.000000,4.000000,4.000000,2.000000,25.000000
1602278987.407908,28.000000,0.000000,3905.641113,4632.307617,4162.051270,4248.205078,3970.256348,4617.948730,4008.205078,3916.923096,4347.692383,3941.538574,4202.563965,4184.615234,4088.718018,3958.974365,0.000000,4.000000,,,,0.000000,4.000000,4.000000,0.000000,4.000000,4.000000,4.000000,4.000000,4.000000,4.000000,1.000000,4.000000,4.000000,4.000000,2.000000,25.000000
1602278987.415732,29.000000,0.000000,3914.358887,4633.846191,4162.051270,4250.769043,3960.000000,4626.153809,4020.000000,3929.230713,4369.230957,3943.076904,4225.128418,4197.948730,4104.615234,3965.641113,0.000000,4.000000,,,,0.000000,4.000000,4.000000,0.000000,4.000000,4.000000,4.000000,4.000000,4.000000,4.000000,1.000000,4.000000,4.000000,4.000000,2.000000,25.000000
1602278987.423457,30.000000,0.000000,3906.153809,4604.102539,4163.077148,4245.128418,3965.641113,4602.563965,3991.794922,3903.076904,4346.153809,3945.641113,4211.794922,4187.692383,4098.461426,3959.487061,0.000000,4.000000,,,,0.000000,4.000000,4.000000,0.000000,4.000000,4.000000,4.000000,4.000000,4.000000,4.000000,1.000000,4.000000,4.000000,4.000000,2.000000,25.000000
1602278987.431281,31.000000,0.000000,3903.076904,4604.102539,4161.025879,4252.820313,3976.410156,4597.436035,3977.435791,3893.846191,4331.282227,3946.666748,4201.025879,4182.051270,4086.666748,3963.076904,0.000000,4.000000,,,,0.000000,4.000000,4.000000,0.000000,4.000000,4.000000,4.000000,4.000000,4.000000,4.000000,1.000000,4.000000,4.000000,4.000000,2.000000,25.000000
1602278987.439006,32.000000,0.000000,3916.923096,4635.897461,4160.000000,4265.641113,3977.948730,4607.692383,3987.692383,3905.641113,4341.538574,3944.102539,4217.436035,4194.871582,4102.051270,3972.307617,0.000000,4.000000,,,,0.000000,4.000000,4.000000,0.000000,4.000000,4.000000,4.000000,4.000000,4.000000,4.000000,1.000000,4.000000,4.000000,4.000000,2.000000,25.000000
1602278987.446830,33.000000,0.000000,3918.461426,4636.410156,4160.000000,4260.000000,3975.384521,4610.769043,3994.358887,3908.205078,4344.102539,3943.589844,4224.102539,4195.384766,4117.948730,3966.153809,0.000000,4.000000,,,,0.000000,4.000000,4.000000,0.000000,4.000000,4.000000,4.000000,4.000000,4.000000,4.000000,1.000000,4.000000,4.000000,4.000000,2.000000,25.000000
1602278987.454554,34.000000,0.000000,3902.051270,4621.025879,4161.538574,4246.666504,3968.205078,4608.717773,3991.281982,3900.512939,4332.820313,3940.512939,4202.051270,4179.487305,4097.436035,3953.846191,0.000000,4.000000,,,,0.000000,4.000000,4.000000,0.000000,4.000000,4.000000,4.000000,4.000000,4.000000,4.000000,1.000000,4.000000,4.000000,4.000000,2.000000,25.000000
1602278987.462378,35.000000,0.000000,3898.461426,4620.512695,4161.538574,4245.128418,3961.025635,4599.487305,3985.128174,3893.333252,4323.589844,3931.281982,4187.179688,4171.794922,4076.410156,3951.794922,0.000000,4.000000,,,,0.000000,4.000000,4.000000,0.000000,4.000000,4.000000,4.000000,4.000000,4.000000,4.000000,1.000000,4.000000,4.000000,4.000000,2.000000,25.000000
1602278987.470111,36.000000,0.000000,3911.794922,4612.820313,4161.538574,4247.692383,3969.230713,4594.871582,3985.128174,3895.384521,4326.153809,3927.179443,4198.461426,4177.948730,4080.000000,3957.435791,0.000000,4.000000,,,,0.000000,4.000000,4.000000,0.000000,4.000000,4.000000,4.000000,4.000000,4.000000,4.000000,1.000000,4.000000,4.000000,4.000000,2.000000,25.000000
1602278987.477944,37.000000,0.000000,3920.000000,4604.102539,4161.025879,4248.205078,3978.461426,4604.615234,3982.051270,3896.923096,4328.717773,3932.820557,4203.077148,4179.487305,4073.846191,3961.025635,0.000000,4.000000,,,,0.000000,4.000000,4.000000,0.000000,4.000000,4.000000,4.000000,4.000000,4.000000,4.000000,1.000000,4.000000,4.000000,4.000000,2.000000,25.000000
1602278987.485778,38.000000,0.000000,3917.948730,4617.948730,4159.487305,4255.897461,3974.871826,4612.307617,3981.538574,3891.281982,4324.102539,3937.435791,4195.384766,4176.410156,4072.820557,3960.512939,0.000000,4.000000,,,,0.000000,4.000000,4.000000,0.000000,4.000000,4.000000,4.000000,4.000000,4.000000,4.000000,1.000000,4.000000,4.000000,4.000000,2.000000,25.000000
1602278987.493611,39.000000,0.000000,3918.461426,4642.563965,4162.051270,4266.153809,3978.974365,4615.897461,3996.923096,3900.000000,4327.179688,3940.512939,4203.077148,4184.615234,4098.461426,3962.051270,0.000000,4.000000,,,,0.000000,4.000000,4.000000,0.000000,4.000000,4.000000,4.000000,4.000000,4.000000,4.000000,1.000000,4.000000,4.000000,4.000000,2.000000,25.000000
1602278987.501444,40.000000,0.000000,3924.615479,4658.461426,4164.102539,4267.179688,3990.769287,4617.436035,4007.692383,3909.743652,4338.461426,3943.589844,4218.461426,4194.358887,4108.717773,3962.051270,0.000000,4.000000,,,,0.000000,4.000000,4.000000,0.000000,4.000000,4.000000,4.000000,4.000000,4.000000,4.000000,1.000000,4.000000,4.000000,4.000000,2.000000,25.000000
1602278987.509277,41.000000,0.000000,3922.564209,4645.641113,4165.128418,4260.000000,3983.589844,4604.615234,3993.846191,3893.846191,4331.794922,3942.051270,4210.256348,4188.717773,4087.179443,3957.435791,0.000000,4.000000,,,,0.000000,4.000000,4.000000,0.000000,4.000000,4.000000,4.000000,4.000000,4.000000,4.000000,1.000000,4.000000,4.000000,4.000000,2.000000,25.000000
1602278987.517001,42.000000,0.000000,3908.718018,4617.436035,4162.563965,4247.692383,3962.564209,4591.282227,3975.384521,3880.000000,4318.974121,3939.487061,4192.307617,4173.333496,4072.307617,3950.256348,0.000000,4.000000,,,,0.000000,4.000000,4.000000,0.000000,4.000000,4.000000,4.000000,4.000000,4.000000,4.000000,1.000000,4.000000,4.000000,4.000000,2.000000,25.000000
1602278987.524926,43.000000,0.000000,3907.179443,4616.922852,4163.589844,4244.102539,3960.512939,4604.102539,3976.923096,3894.871826,4330.769043,3940.000000,4194.871582,4172.820313,4084.615479,3953.333252,0.000000,4.000000,,,,0.000000,4.000000,4.000000,0.000000,4.000000,4.000000,4.000000,4.000000,4.000000,4.000000,1.000000,4.000000,4.000000,4.000000,2.000000,25.000000
1602278987.532751,44.000000,0.000000,3919.487061,4637.948730,4165.128418,4255.897461,3980.512939,4633.333496,3998.974365,3915.897461,4355.897461,3943.589844,4211.794922,4187.179688,4108.205078,3964.102539,0.000000,4.000000,,,,0.000000,4.000000,4.000000,0.000000,4.000000,4.000000,4.000000,4.000000,4.000000,4.000000,1.000000,4.000000,4.000000,4.000000,2.000000,25.000000
1602278987.540676,45.000000,0.000000,3918.461426,4642.563965,4165.128418,4265.128418,3980.512939,4637.948730,4016.410156,3921.538574,4363.589844,3947.179443,4220.512695,4189.743652,4111.282227,3968.205078,0.000000,4.000000,,,,0.000000,4.000000,4.000000,0.000000,4.000000,4.000000,4.000000,4.000000,4.000000,4.000000,1.000000,4.000000,4.000000,4.000000,2.000000,25.000000
1602278987.548502,46.000000,0.000000,3907.179443,4636.410156,4161.538574,4260.512695,3968.205078,4602.563965,3993.333252,3906.666748,4341.025879,3946.666748,4216.410156,4177.948730,4093.846191,3960.000000,0.000000,4.000000,,,,0.000000,4.000000,4.000000,0.000000,4.000000,4.000000,4.000000,4.000000,4.000000,4.000000,1.000000,4.000000,4.000000,4.000000,2.000000,25.000000
1602278987.556426,47.000000,0.000000,3911.281982,4621.538574,4161.538574,4248.717773,3983.589844,4580.512695,3966.153809,3891.794922,4321.538574,3942.051270,4208.205078,4177.436035,4092.307617,3960.512939,0.000000,4.000000,,,,0.000000,4.000000,4.000000,0.000000,4.000000,4.000000,4.000000,4.000000,4.000000,4.000000,1.000000,4.000000,4.000000,4.000000,2.000000,25.000000
1602278987.564251,48.000000,0.000000,3921.025635,4605.128418,4162.563965,4245.641113,3987.692383,4607.179688,3989.230713,3901.025635,4335.897461,3939.487061,4204.615234,4185.641113,4093.846191,3964.102539,0.000000,4.000000,,,,0.000000,4.000000,4.000000,0.000000,4.000000,4.000000,4.000000,4.000000,4.000000,4.000000,1.000000,4.000000,4.000000,4.000000,2.000000,25.000000
1602278987.572176,49.000000,0.000000,3918.974365,4617.436035,4163.077148,4255.897461,3952.820557,4624.615234,4012.820557,3906.153809,4343.589844,3944.102539,4202.563965,4181.538574,4087.692383,3962.564209,0.000000,4.000000,,,,0.000000,4.000000,4.000000,0.000000,4.000000,4.000000,4.000000,4.000000,4.000000,4.000000,1.000000,4.000000,4.000000,4.000000,2.000000,25.000000
1602278987.580001,50.000000,0.000000,3916.410156,4637.948730,4163.077148,4256.922852,3944.102539,4611.282227,4000.512939,3897.435791,4331.282227,3943.589844,4204.102539,4176.410156,4100.512695,3962.051270,0.000000,4.000000,,,,0.000000,4.000000,4.000000,0.000000,4.000000,4.000000,4.000000,4.000000,4.000000,4.000000,1.000000,4.000000,4.000000,4.000000,2.000000,25.000000
1602278987.587725,51.000000,0.000000,3918.461426,4628.205078,4163.077148,4247.692383,3970.769287,4604.102539,3990.256348,3903.589844,4334.358887,3938.461426,4210.769043,4181.538574,4106.153809,3962.051270,0.000000,4.000000,,,,0.000000,4.000000,4.000000,0.000000,4.000000,4.000000,4.000000,4.000000,4.000000,4.000000,1.000000,4.000000,4.000000,4.000000,2.000000,25.000000
1602278987.595550,52.000000,0.000000,3924.102539,4612.307617,4161.025879,4253.333496,3975.897461,4605.128418,3996.923096,3912.307617,4345.128418,3939.487061,4214.358887,4189.743652,4094.871826,3966.666748,0.000000,4.000000,,,,0.000000,4.000000,4.000000,0.000000,4.000000,4.000000,4.000000,4.000000,4.000000,4.000000,1.000000,4.000000,4.000000,4.000000,2.000000,25.000000
1602278987.603274,53.000000,0.000000,3929.743652,4623.077148,4160.000000,4268.205078,3972.307617,4613.333496,4001.025635,3910.256348,4341.025879,3942.564209,4213.333496,4194.358887,4100.000000,3972.307617,0.000000,4.000000,,,,0.000000,4.000000,4.000000,0.000000,4.000000,4.000000,4.000000,4.000000,4.000000,4.000000,1.000000,4.000000,4.000000,4.000000,2.000000,25.000000
1602278987.611099,54.000000,0.000000,3924.615479,4634.871582,4161.538574,4258.974121,3982.051270,4625.641113,3998.974365,3912.307617,4338.461426,3941.025635,4210.256348,4183.589844,4104.615234,3966.153809,0.000000,4.000000,,,,0.000000,4.000000,4.000000,0.000000,4.000000,4.000000,4.000000,4.000000,4.000000,4.000000,1.000000,4.000000,4.000000,4.000000,2.000000,25.000000
1602278987.618823,55.000000,0.000000,3905.641113,4623.589844,4161.538574,4243.589844,3976.923096,4619.487305,3993.846191,3909.230713,4337.436035,3939.487061,4198.461426,4164.102539,4076.410156,3951.794922,0.000000,4.000000,,,,0.000000,4.000000,4.000000,0.000000,4.000000,4.000000,4.000000,4.000000,4.000000,4.000000,1.000000,4.000000,4.000000,4.000000,2.000000,25.000000
1602278987.626648,56.000000,0.000000,3896.410156,4609.743652,4162.563965,4246.153809,3954.871826,4604.102539,3995.897461,3904.102539,4331.794922,3943.076904,4185.641113,4155.897461,4052.307617,3951.281982,0.000000,4.000000,,,,0.000000,4.000000,4.000000,0.000000,4.000000,4.000000,4.000000,4.000000,4.000000,4.000000,1.000000,4.000000,4.000000,4.000000,2.000000,25.000000
1602278987.634372,57.000000,0.000000,3904.615479,4614.871582,4161.025879,4250.256348,3947.692383,4612.820313,4013.333252,3921.538574,4350.769043,3944.615479,4192.307617,4163.077148,4068.205078,3960.512939,0.000000,4.000000,,,,0.000000,4.000000,4.000000,0.000000,4.000000,4.000000,4.000000,4.000000,4.000000,4.000000,1.000000,4.000000,4.000000,4.000000,2.000000,25.000000
1602278987.642196,58.000000,0.000000,3911.794922,4627.692383,4161.025879,4249.230957,3958.461426,4624.615234,4013.333252,3931.281982,4367.179688,3944.615479,4207.179688,4172.307617,4098.461426,3964.102539,0.000000,4.000000,,,,0.000000,4.000000,4.000000,0.000000,4.000000,4.000000,4.000000,4.000000,4.000000,4.000000,1.000000,4.000000,4.000000,4.000000,2.000000,25.000000
1602278987.649920,59.000000,0.000000,3909.230713,4626.666504,4162.051270,4249.743652,3967.179443,4610.256348,3983.589844,3911.281982,4349.743652,3945.641113,4207.692383,4175.384766,4104.102539,3959.487061,0.000000,4.000000,,,,0.000000,4.000000,4.000000,0.000000,4.000000,4.000000,4.000000,4.000000,4.000000,4.000000,1.000000,4.000000,4.000000,4.000000,2.000000,25.000000
1602278987.657744,60.000000,0.000000,3911.281982,4625.641113,4165.128418,4247.692383,3970.769287,4598.461426,3975.897461,3902.564209,4334.358887,3943.589844,4205.128418,4175.897461,4095.897461,3959.487061,0.000000,4.000000,,,,0.000000,4.000000,4.000000,0.000000,4.000000,4.000000,4.000000,4.000000,4.000000,4.000000,1.000000,4.000000,4.000000,4.000000,2.000000,25.000000
1602278987.665468,61.000000,0.000000,3921.025635,4634.871582,4164.102539,4250.256348,3977.948730,4613.333496,4001.538574,3912.820557,4341.538574,3943.589844,4217.436035,4180.000000,4106.153809,3969.230713,0.000000,4.000000,,,,0.000000,4.000000,4.000000,0.000000,4.000000,4.000000,4.000000,4.000000,4.000000,4.000000,1.000000,4.000000,4.000000,4.000000,2.000000,25.000000
1602278987.673393,62.000000,0.000000,3923.076904,4638.461426,4162.563965,4266.153809,3974.358887,4624.615234,4007.179443,3908.205078,4338.974121,3945.641113,4221.538574,4182.563965,4115.384766,3972.307617,0.000000,4.000000,,,,0.000000,4.000000,4.000000,0.000000,4.000000,4.000000,4.000000,4.000000,4.000000,4.000000,1.000000,4.000000,4.000000,4.000000,2.000000,25.000000
1602278987.681219,63.000000,0.000000,3915.897461,4635.897461,4161.025879,4268.205078,3955.897461,4608.717773,3984.615479,3896.410156,4329.743652,3943.589844,4209.230957,4179.487305,4106.666504,3963.589844,0.000000,4.000000,,,,0.000000,4.000000,4.000000,0.000000,4.000000,4.000000,4.000000,4.000000,4.000000,4.000000,1.000000,4.000000,4.000000,4.000000,2.000000,25.000000
1602278987.689145,64.000000,0.000000,3912.820557,4627.179688,4161.538574,4249.743652,3952.820557,4598.974121,3984.102539,3898.461426,4333.846191,3941.025635,4209.230957,4177.436035,4095.897461,3962.564209,0.000000,4.000000,,,,0.000000,4.000000,4.000000,0.000000,4.000000,4.000000,4.000000,4.000000,4.000000,4.000000,1.000000,4.000000,4.000000,4.000000,2.000000,25.000000
1602278987.696970,65.000000,0.000000,3918.461426,4621.025879,4162.563965,4246.666504,3968.205078,4606.153809,3994.358887,3902.051270,4331.794922,3944.615479,4218.974121,4181.025879,4095.384521,3967.179443,421.000000,4.000000,,,,0.000000,4.000000,4.000000,0.000000,4.000000,4.000000,4.000000,4.000000,4.000000,4.000000,1.000000,4.000000,4.000000,4.000000,2.000000,25.000000
1602278987.704896,66.000000,0.000000,3921.538574,4627.692383,4164.615234,4262.563965,3972.820557,4613.333496,3988.718018,3902.051270,4327.179688,3946.666748,4214.871582,4183.077148,4103.077148,3965.641113,386.000000,4.000000,,,,0.000000,4.000000,4.000000,0.000000,4.000000,4.000000,4.000000,4.000000,4.000000,4.000000,1.000000,4.000000,4.000000,4.000000,2.000000,25.000000
1602278987.712721,67.000000,0.000000,3919.487061,4642.563965,4163.077148,4267.692383,3975.384521,4620.000000,3992.820557,3906.666748,4340.000000,3943.076904,4206.666504,4180.000000,4103.589844,3961.538574,446.000000,4.000000,,,,0.000000,4.000000,4.000000,0.000000,4.000000,4.000000,4.000000,4.000000,4.000000,4.000000,1.000000,4.000000,4.000000,4.000000,2.000000,25.000000
1602278987.720646,68.000000,0.000000,3920.512939,4648.717773,4161.538574,4263.589844,3999.487061,4621.538574,4005.641113,3915.897461,4352.820313,3945.641113,4212.820313,4177.948730,4097.436035,3963.076904,477.000000,4.000000,,,,0.000000,4.000000,4.000000,0.000000,4.000000,4.000000,4.000000,4.000000,4.000000,4.000000,1.000000,4.000000,4.000000,4.000000,2.000000,25.000000
1602278987.728472,69.000000,0.000000,3920.512939,4636.922852,4163.589844,4264.102539,4004.102539,4616.922852,3997.435791,3917.435791,4350.769043,3952.820557,4217.436035,4176.410156,4092.820557,3965.641113,411.000000,4.000000,,,,0.000000,4.000000,4.000000,0.000000,4.000000,4.000000,4.000000,4.000000,4.000000,4.000000,1.000000,4.000000,4.000000,4.000000,2.000000,25.000000
1602278987.736397,70.000000,0.000000,3910.769287,4627.179688,4165.128418,4261.538574,3968.718018,4610.256348,3984.102539,3903.589844,4339.487305,3950.769287,4207.692383,4165.641113,4086.153809,3960.000000,469.000000,4.000000,,,,0.000000,4.000000,4.000000,0.000000,4.000000,4.000000,4.000000,4.000000,4.000000,4.000000,1.000000,4.000000,4.000000,4.000000,2.000000,25.000000
1602278987.744222,71.000000,0.000000,3905.641113,4634.871582,4162.563965,4261.538574,3955.384521,4611.794922,3992.307617,3895.897461,4339.487305,3946.153809,4200.512695,4158.974121,4087.692383,3956.410156,392.000000,4.000000,,,,0.000000,4.000000,4.000000,0.000000,4.000000,4.000000,4.000000,4.000000,4.000000,4.000000,1.000000,4.000000,4.000000,4.000000,2.000000,25.000000
1602278987.752147,72.000000,0.000000,3907.179443,4637.948730,4160.512695,4265.128418,3977.435791,4611.282227,3996.410156,3902.051270,4344.615234,3946.666748,4200.512695,4161.025879,4097.436035,3956.410156,413.000000,4.000000,,,,0.000000,4.000000,4.000000,0.000000,4.000000,4.000000,4.000000,4.000000,4.000000,4.000000,1.000000,4.000000,4.000000,4.000000,2.000000,25.000000
1602278987.759971,73.000000,0.000000,3908.205078,4625.128418,4162.563965,4257.948730,3982.564209,4603.589844,3978.974365,3899.487061,4334.871582,3945.641113,4202.563965,4161.025879,4089.743652,3958.461426,52.000000,4.000000,,,,0.000000,4.000000,4.000000,0.000000,4.000000,4.000000,4.000000,4.000000,4.000000,4.000000,1.000000,4.000000,4.000000,4.000000,2.000000,25.000000
1602278987.767696,74.000000,0.000000,3914.871826,4634.871582,4162.051270,4258.461426,3974.871826,4608.717773,3978.974365,3896.923096,4329.230957,3949.743652,4208.717773,4161.538574,4088.205078,3961.025635,443.000000,4.000000,,,,0.000000,4.000000,4.000000,0.000000,4.000000,4.000000,4.000000,4.000000,4.000000,4.000000,1.000000,4.000000,4.000000,4.000000,2.000000,25.000000
1602278987.775521,75.000000,0.000000,3920.000000,4660.512695,4161.538574,4267.692383,3986.666748,4628.717773,4002.051270,3909.230713,4344.102539,3955.384521,4217.436035,4169.743652,4108.717773,3967.179443,239.000000,4.000000,,,,0.000000,4.000000,4.000000,0.000000,4.000000,4.000000,4.000000,4.000000,4.000000,4.000000,1.000000,4.000000,4.000000,4.000000,2.000000,25.000000
1602278987.783245,76.000000,0.000000,3909.743652,4650.256348,4160.512695,4256.922852,3996.410156,4636.410156,4010.769287,3915.384521,4351.794922,3949.230713,4219.487305,4170.256348,4105.641113,3966.153809,426.000000,4.000000,,,,0.000000,4.000000,4.000000,0.000000,4.000000,4.000000,4.000000,4.000000,4.000000,4.000000,1.000000,4.000000,4.000000,4.000000,2.000000,25.000000
1602278987.791070,77.000000,0.000000,3901.025635,4622.051270,4161.538574,4241.538574,3978.974365,4620.000000,3995.897461,3906.153809,4341.025879,3942.564209,4211.282227,4160.512695,4089.743652,3958.974365,356.000000,4.000000,,,,0.000000,4.000000,4.000000,0.000000,4.000000,4.000000,4.000000,4.000000,4.000000,4.000000,1.000000,4.000000,4.000000,4.000000,2.000000,25.000000
1602278987.798794,78.000000,0.000000,3905.641113,4615.897461,4161.538574,4243.589844,3954.358887,4600.000000,3984.102539,3895.897461,4326.153809,3946.153809,4202.563965,4154.358887,4095.384521,3953.846191,443.000000,4.000000,,,,0.000000,4.000000,4.000000,0.000000,4.000000,4.000000,4.000000,4.000000,4.000000,4.000000,1.000000,4.000000,4.000000,4.000000,2.000000,25.000000
1602278987.806618,79.000000,0.000000,3911.281982,4624.102539,4163.077148,4247.692383,3953.333252,4598.461426,3981.538574,3891.794922,4315.897461,3945.641113,4201.025879,4153.333496,4090.769287,3956.410156,239.000000,4.000000,,,,0.000000,4.000000,4.000000,0.000000,4.000000,4.000000,4.000000,4.000000,4.000000,4.000000,1.000000,4.000000,4.000000,4.000000,2.000000,25.000000
1602278987.814342,80.000000,0.000000,3912.820557,4622.563965,4163.589844,4247.692383,3967.692383,4614.871582,3986.153809,3901.025635,4325.128418,3944.615479,4205.641113,4156.410156,4077.948730,3959.487061,426.000000,4.000000,,,,0.000000,4.000000,4.000000,0.000000,4.000000,4.000000,4.000000,4.000000,4.000000,4.000000,1.000000,4.000000,4.000000,4.000000,2.000000,25.000000
1602278987.822166,81.000000,0.000000,3909.230713,4613.333496,4163.589844,4246.153809,3971.794922,4622.563965,3992.307617,3910.256348,4340.000000,3951.281982,4208.205078,4161.025879,4080.000000,3958.974365,356.000000,4.000000,,,,0.000000,4.000000,4.000000,0.000000,4.000000,4.000000,4.000000,4.000000,4.000000,4.000000,1.000000,4.000000,4.000000,4.000000,2.000000,25.000000
1602278987.829890,82.000000,0.000000,3900.000000,4612.820313,4162.051270,4237.436035,3980.512939,4617.436035,3989.743652,3900.512939,4337.948730,3949.743652,4207.179688,4158.461426,4080.000000,3955.384521,443.000000,4.000000,,,,0.000000,4.000000,4.000000,0.000000,4.000000,4.000000,4.000000,4.000000,4.000000,4.000000,1.000000,4.000000,4.000000,4.000000,2.000000,25.000000
1602278987.837714,83.000000,0.000000,3895.384521,4615.384766,4162.051270,4229.230957,3995.897461,4612.307617,3985.128174,3888.205078,4331.282227,3941.538574,4201.538574,4147.179688,4069.743652,3950.256348,239.000000,4.000000,,,,0.000000,4.000000,4.000000,0.000000,4.000000,4.000000,4.000000,4.000000,4.000000,4.000000,1.000000,4.000000,4.000000,4.000000,2.000000,25.000000
1602278987.845438,84.000000,0.000000,3900.512939,4612.307617,4162.051270,4234.871582,3993.846191,4607.692383,3992.820557,3895.897461,4330.769043,3943.076904,4196.922852,4141.538574,4068.718018,3949.743652,426.000000,4.000000,,,,0.000000,4.000000,4.000000,0.000000,4.000000,4.000000,4.000000,4.000000,4.000000,4.000000,1.000000,4.000000,4.000000,4.000000,2.000000,25.000000
1602278987.853363,85.000000,0.000000,3906.666748,4619.487305,4163.077148,4244.615234,3980.512939,4612.820313,4002.051270,3909.230713,4331.282227,3946.153809,4203.589844,4151.282227,4078.974365,3957.948730,356.000000,4.000000,,,,0.000000,4.000000,4.000000,0.000000,4.000000,4.000000,4.000000,4.000000,4.000000,4.000000,1.000000,4.000000,4.000000,4.000000,2.000000,25.000000
1602278987.861189,86.000000,0.000000,3909.230713,4637.948730,4165.128418,4249.230957,3980.512939,4631.794922,4005.128174,3905.641113,4332.307617,3945.641113,4213.333496,4162.051270,4084.615479,3965.641113,443.000000,4.000000,,,,0.000000,4.000000,4.000000,0.000000,4.000000,4.000000,4.000000,4.000000,4.000000,4.000000,1.000000,4.000000,4.000000,4.000000,2.000000,25.000000
1602278987.869114,87.000000,0.000000,3905.641113,4643.589844,4161.538574,4245.641113,3981.538574,4634.358887,3998.461426,3893.333252,4329.743652,3949.230713,4213.333496,4161.538574,4076.410156,3961.025635,239.000000,4.000000,,,,0.000000,4.000000,4.000000,0.000000,4.000000,4.000000,4.000000,4.000000,4.000000,4.000000,1.000000,4.000000,4.000000,4.000000,2.000000,25.000000
1602278987.876940,88.000000,0.000000,3905.641113,4633.333496,4160.000000,4241.025879,3980.000000,4613.846191,3988.205078,3895.384521,4329.743652,3953.846191,4211.282227,4157.948730,4082.051270,3956.923096,426.000000,4.000000,,,,0.000000,4.000000,4.000000,0.000000,4.000000,4.000000,4.000000,4.000000,4.000000,4.000000,1.000000,4.000000,4.000000,4.000000,2.000000,25.000000
1602278987.884865,89.000000,0.000000,3912.820557,4633.846191,4164.615234,4244.102539,3986.666748,4609.743652,3997.948730,3910.769287,4343.589844,3953.846191,4217.948730,4161.025879,4109.743652,3960.512939,356.000000,4.000000,,,,0.000000,4.000000,4.000000,0.000000,4.000000,4.000000,4.000000,4.000000,4.000000,4.000000,1.000000,4.000000,4.000000,4.000000,2.000000,25.000000
1602278987.892690,90.000000,0.000000,3917.948730,4650.256348,4166.153809,4251.794922,3993.333252,4626.666504,4014.358887,3913.846191,4352.307617,3955.384521,4229.230957,4169.743652,4119.487305,3966.666748,443.000000,4.000000,,,,0.000000,4.000000,4.000000,0.000000,4.000000,4.000000,4.000000,4.000000,4.000000,4.000000,1.000000,4.000000,4.000000,4.000000,2.000000,25.000000
1602278987.900616,91.000000,0.000000,3918.461426,4648.717773,4162.051270,4252.307617,3997.435791,4632.820313,4007.692383,3910.769287,4350.769043,3958.974365,4235.384766,4175.384766,4105.641113,3970.769287,239.000000,4.000000,,,,0.000000,4.000000,4.000000,0.000000,4.000000,4.000000,4.000000,4.000000,4.000000,4.000000,1.000000,4.000000,4.000000,4.000000,2.000000,25.000000
1602278987.908441,92.000000,0.000000,3918.461426,4633.333496,4163.077148,4244.102539,4000.512939,4623.589844,3994.358887,3909.743652,4348.205078,3957.435791,4228.717773,4171.282227,4102.051270,3972.820557,426.000000,4.000000,,,,0.000000,4.000000,4.000000,0.000000,4.000000,4.000000,4.000000,4.000000,4.000000,4.000000,1.000000,4.000000,4.000000,4.000000,2.000000,25.000000
1602278987.916365,93.000000,0.000000,3915.384521,4637.948730,4163.077148,4240.000000,3989.230713,4617.436035,3998.974365,3901.025635,4340.512695,3954.871826,4218.461426,4164.102539,4106.666504,3967.179443,356.000000,4.000000,,,,0.000000,4.000000,4.000000,0.000000,4.000000,4.000000,4.000000,4.000000,4.000000,4.000000,1.000000,4.000000,4.000000,4.000000,2.000000,25.000000
1602278987.924190,94.000000,0.000000,3913.846191,4645.128418,4164.615234,4245.128418,3981.025635,4612.820313,3996.923096,3890.769287,4328.205078,3952.307617,4215.384766,4162.563965,4101.025879,3958.461426,443.000000,4.000000,,,,0.000000,4.000000,4.000000,0.000000,4.000000,4.000000,4.000000,4.000000,4.000000,4.000000,1.000000,4.000000,4.000000,4.000000,2.000000,25.000000
1602278987.932015,95.000000,0.000000,3912.820557,4628.717773,4165.641113,4255.897461,3998.461426,4610.256348,3986.666748,3894.358887,4327.179688,3952.307617,4214.358887,4162.051270,4090.769287,3957.948730,239.000000,4.000000,,,,0.000000,4.000000,4.000000,0.000000,4.000000,4.000000,4.000000,4.000000,4.000000,4.000000,1.000000,4.000000,4.000000,4.000000,2.000000,25.000000
1602278987.939840,96.000000,0.000000,3906.153809,4623.077148,4162.051270,4256.410156,3999.487061,4620.512695,3999.487061,3908.718018,4344.102539,3956.410156,4214.871582,4160.512695,4088.205078,3963.076904,426.000000,4.000000,,,,0.000000,4.000000,4.000000,0.000000,4.000000,4.000000,4.000000,4.000000,4.000000,4.000000,1.000000,4.000000,4.000000,4.000000,2.000000,25.000000
1602278987.947565,97.000000,0.000000,3904.102539,4641.538574,4157.436035,4241.538574,3977.948730,4631.282227,4018.974365,3915.897461,4358.974121,3956.923096,4217.948730,4161.538574,4103.077148,3963.076904,356.000000,4.000000,,,,0.000000,4.000000,4.000000,0.000000,4.000000,4.000000,4.000000,4.000000,4.000000,4.000000,1.000000,4.000000,4.000000,4.000000,2.000000,25.000000
1602278987.955390,98.000000,0.000000,3907.692383,4647.179688,4162.051270,4231.794922,3983.589844,4632.820313,4011.794922,3910.769287,4353.333496,3953.846191,4220.512695,4162.563965,4117.436035,3962.051270,443.000000,4.000000,,,,0.000000,4.000000,4.000000,0.000000,4.000000,4.000000,4.000000,4.000000,4.000000,4.000000,1.000000,4.000000,4.000000,4.000000,2.000000,25.000000
1602278987.963114,99.000000,0.000000,3905.128174,4628.205078,4164.615234,4232.820313,3995.384521,4626.666504,3996.410156,3908.205078,4344.102539,3953.333252,4218.461426,4160.000000,4113.333496,3962.564209,239.000000,4.000000,,,,0.000000,4.000000,4.000000,0.000000,4.000000,4.000000,4.000000,4.000000,4.000000,4.000000,1.000000,4.000000,4.000000,4.000000,2.000000,25.000000
