title:your record name, start timestamp:1602278927.052755, stop timestamp:1602278957.354828, headset type:EPOC, headset serial:78900557, headset firmware:1e00, subject name:alzaabi.su, channels:38, sampling rate:128, samples:3876      , version:2.0
Timestamp,EEG.Counter,EEG.Interpolated,EEG.AF3,EEG.F7,EEG.F3,EEG.FC5,EEG.T7,EEG.P7,EEG.O1,EEG.O2,EEG.P8,EEG.T8,EEG.FC6,EEG.F4,EEG.F8,EEG.AF4,EEG.RawCq,EEG.Battery,MarkerIndex,MarkerType,MarkerValueInt,EEG.MarkerHardware,CQ.AF3,CQ.F7,CQ.F3,CQ.FC5,CQ.T7,CQ.P7,CQ.O1,CQ.O2,CQ.P8,CQ.T8,CQ.FC6,CQ.F4,CQ.F8,CQ.AF4,CQ.Overall
1602278927.052755,50.000000,0.000000,3906.666748,4596.922852,4185.641113,4217.436035,3918.461426,4618.974121,3943.076904,3851.281982,4273.846191,3936.410156,4205.128418,4123.589844,4064.615479,3950.256348,0.000000,4.000000,,,,0.000000,4.000000,4.000000,0.000000,4.000000,4.000000,4.000000,4.000000,4.000000,4.000000,1.000000,4.000000,4.000000,4.000000,2.000000,25.000000
1602278927.060682,51.000000,0.000000,3902.051270,4590.256348,4184.615234,4202.563965,3928.205078,4605.128418,3937.435791,3836.410156,4262.051270,3932.820557,4196.922852,4122.051270,4061.025635,3947.179443,0.000000,4.000000,,,,0.000000,4.000000,4.000000,0.000000,4.000000,4.000000,4.000000,4.000000,4.000000,4.000000,1.000000,4.000000,4.000000,4.000000,2.000000,25.000000
1602278927.068509,52.000000,0.000000,3886.153809,4571.282227,4185.128418,4196.922852,3922.564209,4580.512695,3900.512939,3821.538574,4249.230957,3927.179443,4188.205078,4112.820313,4031.281982,3936.923096,0.000000,4.000000,,,,0.000000,4.000000,4.000000,0.000000,4.000000,4.000000,4.000000,4.000000,4.000000,4.000000,1.000000,4.000000,4.000000,4.000000,2.000000,25.000000
1602278927.076436,53.000000,0.000000,3891.794922,4576.922852,4186.666504,4203.077148,3923.589844,4588.717773,3909.230713,3835.897461,4255.384766,3932.820557,4191.282227,4116.410156,4012.307617,3943.076904,0.000000,4.000000,,,,0.000000,4.000000,4.000000,0.000000,4.000000,4.000000,4.000000,4.000000,4.000000,4.000000,1.000000,4.000000,4.000000,4.000000,2.000000,25.000000
1602278927.084263,54.000000,0.000000,3901.538574,4594.871582,4184.102539,4215.384766,3936.923096,4628.717773,3949.743652,3853.333252,4273.333496,3940.512939,4197.948730,4123.589844,4043.589844,3948.205078,0.000000,4.000000,,,,0.000000,4.000000,4.000000,0.000000,4.000000,4.000000,4.000000,4.000000,4.000000,4.000000,1.000000,4.000000,4.000000,4.000000,2.000000,25.000000
1602278927.092190,55.000000,0.000000,3890.256348,4600.000000,4186.153809,4221.025879,3943.589844,4638.461426,3958.974365,3848.718018,4278.461426,3936.410156,4196.410156,4114.871582,4070.769287,3939.487061,0.000000,4.000000,,,,0.000000,4.000000,4.000000,0.000000,4.000000,4.000000,4.000000,4.000000,4.000000,4.000000,1.000000,4.000000,4.000000,4.000000,2.000000,25.000000
1602278927.100016,56.000000,0.000000,3881.538574,4591.794922,4187.179688,4208.205078,3930.256348,4609.230957,3930.769287,3835.384521,4264.102539,3928.205078,4188.205078,4100.512695,4049.743652,3932.307617,0.000000,4.000000,,,,0.000000,4.000000,4.000000,0.000000,4.000000,4.000000,4.000000,4.000000,4.000000,4.000000,1.000000,4.000000,4.000000,4.000000,2.000000,25.000000
1602278927.107743,57.000000,0.000000,3885.128174,4577.948730,4184.102539,4195.897461,3909.230713,4587.179688,3894.358887,3828.718018,4249.743652,3927.692383,4174.358887,4097.948730,4023.589844,3932.307617,0.000000,4.000000,,,,0.000000,4.000000,4.000000,0.000000,4.000000,4.000000,4.000000,4.000000,4.000000,4.000000,1.000000,4.000000,4.000000,4.000000,2.000000,25.000000
1602278927.115570,58.000000,0.000000,3888.718018,4573.846191,4183.589844,4202.563965,3909.743652,4593.846191,3905.641113,3837.435791,4257.436035,3930.256348,4172.307617,4105.641113,4031.794922,3934.871826,0.000000,4.000000,,,,0.000000,4.000000,4.000000,0.000000,4.000000,4.000000,4.000000,4.000000,4.000000,4.000000,1.000000,4.000000,4.000000,4.000000,2.000000,25.000000
1602278927.123296,59.000000,0.000000,3891.794922,4585.641113,4187.179688,4211.282227,3924.615479,4615.897461,3957.948730,3852.820557,4275.897461,3934.871826,4192.307617,4116.922852,4044.102539,3941.538574,0.000000,4.000000,,,,0.000000,4.000000,4.000000,0.000000,4.000000,4.000000,4.000000,4.000000,4.000000,4.000000,1.000000,4.000000,4.000000,4.000000,2.000000,25.000000
1602278927.131122,60.000000,0.000000,3896.923096,4591.282227,4186.153809,4209.743652,3931.794922,4625.641113,3970.769287,3858.461426,4280.512695,3941.025635,4206.153809,4123.589844,4042.051270,3945.128174,0.000000,4.000000,,,,0.000000,4.000000,4.000000,0.000000,4.000000,4.000000,4.000000,4.000000,4.000000,4.000000,1.000000,4.000000,4.000000,4.000000,2.000000,25.000000
1602278927.138849,61.000000,0.000000,3894.358887,4579.487305,4183.077148,4209.230957,3928.718018,4612.820313,3934.358887,3850.769287,4271.282227,3944.102539,4197.948730,4121.025879,4045.128174,3940.000000,0.000000,4.000000,,,,0.000000,4.000000,4.000000,0.000000,4.000000,4.000000,4.000000,4.000000,4.000000,4.000000,1.000000,4.000000,4.000000,4.000000,2.000000,25.000000
1602278927.146675,62.000000,0.000000,3897.948730,4582.563965,4189.230957,4215.384766,3935.897461,4611.282227,3934.358887,3849.743652,4270.769043,3942.051270,4196.922852,4122.563965,4064.102539,3943.076904,0.000000,4.000000,,,,0.000000,4.000000,4.000000,0.000000,4.000000,4.000000,4.000000,4.000000,4.000000,4.000000,1.000000,4.000000,4.000000,4.000000,2.000000,25.000000
1602278927.154401,63.000000,0.000000,3903.589844,4595.897461,4190.769043,4214.871582,3937.435791,4613.846191,3943.076904,3852.307617,4275.897461,3937.948730,4207.179688,4125.641113,4071.794922,3947.179443,0.000000,4.000000,,,,0.000000,4.000000,4.000000,0.000000,4.000000,4.000000,4.000000,4.000000,4.000000,4.000000,1.000000,4.000000,4.000000,4.000000,2.000000,25.000000
1602278927.162226,64.000000,0.000000,3901.538574,4591.794922,4186.153809,4214.871582,3923.076904,4607.179688,3922.051270,3852.307617,4275.384766,3938.461426,4205.641113,4124.102539,4056.410156,3943.589844,0.000000,4.000000,,,,0.000000,4.000000,4.000000,0.000000,4.000000,4.000000,4.000000,4.000000,4.000000,4.000000,1.000000,4.000000,4.000000,4.000000,2.000000,25.000000
1602278927.169952,65.000000,0.000000,3905.641113,4588.205078,4185.641113,4228.205078,3929.230713,4613.333496,3927.692383,3853.846191,4274.358887,3943.076904,4203.589844,4130.769043,4056.923096,3946.153809,419.000000,4.000000,,,,0.000000,4.000000,4.000000,0.000000,4.000000,4.000000,4.000000,4.000000,4.000000,4.000000,1.000000,4.000000,4.000000,4.000000,2.000000,25.000000
1602278927.177778,66.000000,0.000000,3904.615479,4591.794922,4188.205078,4227.179688,3945.128174,4619.487305,3941.025635,3852.307617,4271.794922,3942.564209,4204.615234,4131.794922,4064.102539,3948.718018,385.000000,4.000000,,,,0.000000,4.000000,4.000000,0.000000,4.000000,4.000000,4.000000,4.000000,4.000000,4.000000,1.000000,4.000000,4.000000,4.000000,2.000000,25.000000
1602278927.185503,67.000000,0.000000,3892.820557,4591.794922,4184.102539,4209.230957,3937.435791,4612.820313,3935.897461,3854.871826,4272.820313,3939.487061,4196.922852,4118.974121,4057.435791,3939.487061,444.000000,4.000000,,,,0.000000,4.000000,4.000000,0.000000,4.000000,4.000000,4.000000,4.000000,4.000000,4.000000,1.000000,4.000000,4.000000,4.000000,2.000000,25.000000
1602278927.193431,68.000000,0.000000,3894.358887,4588.717773,4184.615234,4210.256348,3914.871826,4605.641113,3933.846191,3858.461426,4276.410156,3940.512939,4193.846191,4120.000000,4052.820557,3937.948730,476.000000,4.000000,,,,0.000000,4.000000,4.000000,0.000000,4.000000,4.000000,4.000000,4.000000,4.000000,4.000000,1.000000,4.000000,4.000000,4.000000,2.000000,25.000000
1602278927.201259,69.000000,0.000000,3901.538574,4592.820313,4187.692383,4225.641113,3912.820557,4607.692383,3932.307617,3849.743652,4273.333496,3941.538574,4197.436035,4129.743652,4053.846191,3942.051270,412.000000,4.000000,,,,0.000000,4.000000,4.000000,0.000000,4.000000,4.000000,4.000000,4.000000,4.000000,4.000000,1.000000,4.000000,4.000000,4.000000,2.000000,25.000000
1602278927.209186,70.000000,0.000000,3898.974365,4593.333496,4192.307617,4224.102539,3925.641113,4608.205078,3928.718018,3837.435791,4264.102539,3937.948730,4191.794922,4126.153809,4052.820557,3942.051270,470.000000,4.000000,,,,0.000000,4.000000,4.000000,0.000000,4.000000,4.000000,4.000000,4.000000,4.000000,4.000000,1.000000,4.000000,4.000000,4.000000,2.000000,25.000000
1602278927.217014,71.000000,0.000000,3898.974365,4586.666504,4190.769043,4220.512695,3932.820557,4604.102539,3926.666748,3842.564209,4263.077148,3936.923096,4189.230957,4122.051270,4048.205078,3942.564209,395.000000,4.000000,,,,0.000000,4.000000,4.000000,0.000000,4.000000,4.000000,4.000000,4.000000,4.000000,4.000000,1.000000,4.000000,4.000000,4.000000,2.000000,25.000000
1602278927.224941,72.000000,0.000000,3905.128174,4588.205078,4186.666504,4224.102539,3936.923096,4603.077148,3918.974365,3848.718018,4271.794922,3940.512939,4195.897461,4127.692383,4045.641113,3944.102539,410.000000,4.000000,,,,0.000000,4.000000,4.000000,0.000000,4.000000,4.000000,4.000000,4.000000,4.000000,4.000000,1.000000,4.000000,4.000000,4.000000,2.000000,25.000000
1602278927.232768,73.000000,0.000000,3898.461426,4585.641113,4185.128418,4209.743652,3926.666748,4604.102539,3915.384521,3836.923096,4266.666504,3938.974365,4187.692383,4124.615234,4037.948730,3938.974365,57.000000,4.000000,,,,0.000000,4.000000,4.000000,0.000000,4.000000,4.000000,4.000000,4.000000,4.000000,4.000000,1.000000,4.000000,4.000000,4.000000,2.000000,25.000000
1602278927.240695,74.000000,0.000000,3888.205078,4580.512695,4185.641113,4196.922852,3919.487061,4606.153809,3932.307617,3836.923096,4261.538574,3936.410156,4177.436035,4116.922852,4037.435791,3936.923096,443.000000,4.000000,,,,0.000000,4.000000,4.000000,0.000000,4.000000,4.000000,4.000000,4.000000,4.000000,4.000000,1.000000,4.000000,4.000000,4.000000,2.000000,25.000000
1602278927.248523,75.000000,0.000000,3891.281982,4588.717773,4183.589844,4211.794922,3929.230713,4608.717773,3943.076904,3852.820557,4271.282227,3940.000000,4188.717773,4118.974121,4056.410156,3943.589844,241.000000,4.000000,,,,0.000000,4.000000,4.000000,0.000000,4.000000,4.000000,4.000000,4.000000,4.000000,4.000000,1.000000,4.000000,4.000000,4.000000,2.000000,25.000000
1602278927.256450,76.000000,0.000000,3895.897461,4602.051270,4188.205078,4219.487305,3926.666748,4614.358887,3935.384521,3856.923096,4280.000000,3945.128174,4200.000000,4124.615234,4070.769287,3948.718018,426.000000,4.000000,,,,0.000000,4.000000,4.000000,0.000000,4.000000,4.000000,4.000000,4.000000,4.000000,4.000000,1.000000,4.000000,4.000000,4.000000,2.000000,25.000000
1602278927.264277,77.000000,0.000000,3897.435791,4598.461426,4195.897461,4213.333496,3928.205078,4616.922852,3937.435791,3856.923096,4285.641113,3944.615479,4200.000000,4127.179688,4067.692383,3949.743652,356.000000,4.000000,,,,0.000000,4.000000,4.000000,0.000000,4.000000,4.000000,4.000000,4.000000,4.000000,4.000000,1.000000,4.000000,4.000000,4.000000,2.000000,25.000000
1602278927.272203,78.000000,0.000000,3899.487061,4591.794922,4189.230957,4223.589844,3950.769287,4610.769043,3946.153809,3862.564209,4288.717773,3943.076904,4197.436035,4125.641113,4060.000000,3946.153809,443.000000,4.000000,,,,0.000000,4.000000,4.000000,0.000000,4.000000,4.000000,4.000000,4.000000,4.000000,4.000000,1.000000,4.000000,4.000000,4.000000,2.000000,25.000000
1602278927.280030,79.000000,0.000000,3900.512939,4596.922852,4186.153809,4229.743652,3948.205078,4606.153809,3940.512939,3856.923096,4278.974121,3944.615479,4193.333496,4124.102539,4055.897461,3944.615479,241.000000,4.000000,,,,0.000000,4.000000,4.000000,0.000000,4.000000,4.000000,4.000000,4.000000,4.000000,4.000000,1.000000,4.000000,4.000000,4.000000,2.000000,25.000000
1602278927.287757,80.000000,0.000000,3896.923096,4600.000000,4188.717773,4216.922852,3918.461426,4612.820313,3933.846191,3847.179443,4270.256348,3945.641113,4192.820313,4122.563965,4053.846191,3943.589844,426.000000,4.000000,,,,0.000000,4.000000,4.000000,0.000000,4.000000,4.000000,4.000000,4.000000,4.000000,4.000000,1.000000,4.000000,4.000000,4.000000,2.000000,25.000000
1602278927.295583,81.000000,0.000000,3895.384521,4598.461426,4188.717773,4212.820313,3919.487061,4613.333496,3932.307617,3840.512939,4272.820313,3943.076904,4191.282227,4121.538574,4053.333252,3943.076904,356.000000,4.000000,,,,0.000000,4.000000,4.000000,0.000000,4.000000,4.000000,4.000000,4.000000,4.000000,4.000000,1.000000,4.000000,4.000000,4.000000,2.000000,25.000000
1602278927.303310,82.000000,0.000000,3901.025635,4598.461426,4185.641113,4216.922852,3941.025635,4597.436035,3922.051270,3835.897461,4270.769043,3940.512939,4185.128418,4125.128418,4049.230713,3943.589844,443.000000,4.000000,,,,0.000000,4.000000,4.000000,0.000000,4.000000,4.000000,4.000000,4.000000,4.000000,4.000000,1.000000,4.000000,4.000000,4.000000,2.000000,25.000000
1602278927.311136,83.000000,0.000000,3902.564209,4596.922852,4185.128418,4216.410156,3940.000000,4597.436035,3920.512939,3844.102539,4271.794922,3941.025635,4187.692383,4126.666504,4045.641113,3945.641113,241.000000,4.000000,,,,0.000000,4.000000,4.000000,0.000000,4.000000,4.000000,4.000000,4.000000,4.000000,4.000000,1.000000,4.000000,4.000000,4.000000,2.000000,25.000000
1602278927.318862,84.000000,0.000000,3895.897461,4587.692383,4183.077148,4212.820313,3927.692383,4615.384766,3943.589844,3855.384521,4277.948730,3940.512939,4187.179688,4118.461426,4046.666748,3940.512939,426.000000,4.000000,,,,0.000000,4.000000,4.000000,0.000000,4.000000,4.000000,4.000000,4.000000,4.000000,4.000000,1.000000,4.000000,4.000000,4.000000,2.000000,25.000000
1602278927.326688,85.000000,0.000000,3890.769287,4577.436035,4184.102539,4213.333496,3920.000000,4613.333496,3947.179443,3845.641113,4264.615234,3938.461426,4173.846191,4109.230957,4041.538574,3934.358887,356.000000,4.000000,,,,0.000000,4.000000,4.000000,0.000000,4.000000,4.000000,4.000000,4.000000,4.000000,4.000000,1.000000,4.000000,4.000000,4.000000,2.000000,25.000000
1602278927.334414,86.000000,0.000000,3894.871826,4585.128418,4183.077148,4221.025879,3922.564209,4600.512695,3926.666748,3839.487061,4253.333496,3940.000000,4173.333496,4112.307617,4042.051270,3935.384521,443.000000,4.000000,,,,0.000000,4.000000,4.000000,0.000000,4.000000,4.000000,4.000000,4.000000,4.000000,4.000000,1.000000,4.000000,4.000000,4.000000,2.000000,25.000000
1602278927.342240,87.000000,0.000000,3902.051270,4596.922852,4182.563965,4225.128418,3932.820557,4607.179688,3937.948730,3858.461426,4270.769043,3943.076904,4187.692383,4123.077148,4053.333252,3943.076904,241.000000,4.000000,,,,0.000000,4.000000,4.000000,0.000000,4.000000,4.000000,4.000000,4.000000,4.000000,4.000000,1.000000,4.000000,4.000000,4.000000,2.000000,25.000000
1602278927.349965,88.000000,0.000000,3898.974365,4592.820313,4183.589844,4214.871582,3936.410156,4618.974121,3956.923096,3870.256348,4285.641113,3943.589844,4190.256348,4125.128418,4054.358887,3942.051270,426.000000,4.000000,,,,0.000000,4.000000,4.000000,0.000000,4.000000,4.000000,4.000000,4.000000,4.000000,4.000000,1.000000,4.000000,4.000000,4.000000,2.000000,25.000000
1602278927.357791,89.000000,0.000000,3887.692383,4578.461426,4184.615234,4209.743652,3927.692383,4606.153809,3926.153809,3849.743652,4266.153809,3940.000000,4177.948730,4116.410156,4040.512939,3936.923096,356.000000,4.000000,,,,0.000000,4.000000,4.000000,0.000000,4.000000,4.000000,4.000000,4.000000,4.000000,4.000000,1.000000,4.000000,4.000000,4.000000,2.000000,25.000000
1602278927.365516,90.000000,0.000000,3887.179443,4580.000000,4183.589844,4215.384766,3932.820557,4589.743652,3907.179443,3829.230713,4247.179688,3940.000000,4175.384766,4111.282227,4039.487061,3941.025635,443.000000,4.000000,,,,0.000000,4.000000,4.000000,0.000000,4.000000,4.000000,4.000000,4.000000,4.000000,4.000000,1.000000,4.000000,4.000000,4.000000,2.000000,25.000000
1602278927.373444,91.000000,0.000000,3900.512939,4596.410156,4184.102539,4219.487305,3953.846191,4608.205078,3948.205078,3848.205078,4267.692383,3949.743652,4191.282227,4121.025879,4056.410156,3950.769287,241.000000,4.000000,,,,0.000000,4.000000,4.000000,0.000000,4.000000,4.000000,4.000000,4.000000,4.000000,4.000000,1.000000,4.000000,4.000000,4.000000,2.000000,25.000000
1602278927.381272,92.000000,0.000000,3905.128174,4601.538574,4186.153809,4219.487305,3944.102539,4634.358887,3971.281982,3872.307617,4289.230957,3958.974365,4200.000000,4130.256348,4060.000000,3951.794922,426.000000,4.000000,,,,0.000000,4.000000,4.000000,0.000000,4.000000,4.000000,4.000000,4.000000,4.000000,4.000000,1.000000,4.000000,4.000000,4.000000,2.000000,25.000000
1602278927.389199,93.000000,0.000000,3893.846191,4592.307617,4187.692383,4210.256348,3917.948730,4617.948730,3942.564209,3854.358887,4273.333496,3958.461426,4182.563965,4124.615234,4040.512939,3945.641113,356.000000,4.000000,,,,0.000000,4.000000,4.000000,0.000000,4.000000,4.000000,4.000000,4.000000,4.000000,4.000000,1.000000,4.000000,4.000000,4.000000,2.000000,25.000000
1602278927.397027,94.000000,0.000000,3894.358887,4585.128418,4186.153809,4209.743652,3928.718018,4588.717773,3925.128174,3833.333252,4254.358887,3954.871826,4169.743652,4116.410156,4032.820557,3945.128174,443.000000,4.000000,,,,0.000000,4.000000,4.000000,0.000000,4.000000,4.000000,4.000000,4.000000,4.000000,4.000000,1.000000,4.000000,4.000000,4.000000,2.000000,25.000000
1602278927.404954,95.000000,0.000000,3907.179443,4580.512695,4182.051270,4228.717773,3943.589844,4596.410156,3931.281982,3843.076904,4257.948730,3958.461426,4177.948730,4118.974121,4048.718018,3948.718018,241.000000,4.000000,,,,0.000000,4.000000,4.000000,0.000000,4.000000,4.000000,4.000000,4.000000,4.000000,4.000000,1.000000,4.000000,4.000000,4.000000,2.000000,25.000000
1602278927.412782,96.000000,0.000000,3905.128174,4583.589844,4184.615234,4229.230957,3935.897461,4609.743652,3927.179443,3845.641113,4258.974121,3969.230713,4182.051270,4123.589844,4056.410156,3948.718018,426.000000,4.000000,,,,0.000000,4.000000,4.000000,0.000000,4.000000,4.000000,4.000000,4.000000,4.000000,4.000000,1.000000,4.000000,4.000000,4.000000,2.000000,25.000000
1602278927.420709,97.000000,0.000000,3897.435791,4595.384766,4186.153809,4210.256348,3936.923096,4604.615234,3925.641113,3836.923096,4258.974121,3973.846191,4180.512695,4125.128418,4052.820557,3946.153809,356.000000,4.000000,,,,0.000000,4.000000,4.000000,0.000000,4.000000,4.000000,4.000000,4.000000,4.000000,4.000000,1.000000,4.000000,4.000000,4.000000,2.000000,25.000000
1602278927.428536,98.000000,0.000000,3903.076904,4601.538574,4184.615234,4215.384766,3940.000000,4601.538574,3932.307617,3844.615479,4268.717773,3970.769287,4184.102539,4127.692383,4056.410156,3948.205078,443.000000,4.000000,,,,0.000000,4.000000,4.000000,0.000000,4.000000,4.000000,4.000000,4.000000,4.000000,4.000000,1.000000,4.000000,4.000000,4.000000,2.000000,25.000000
1602278927.436463,99.000000,0.000000,3905.128174,4600.512695,4181.025879,4230.769043,3930.769287,4605.128418,3935.384521,3851.281982,4273.333496,3971.794922,4184.615234,4126.666504,4060.512939,3946.153809,241.000000,4.000000,,,,0.000000,4.000000,4.000000,0.000000,4.000000,4.000000,4.000000,4.000000,4.000000,4.000000,1.000000,4.000000,4.000000,4.000000,2.000000,25.000000
1602278927.444290,100.000000,0.000000,3905.641113,4590.256348,4186.153809,4225.128418,3928.205078,4608.717773,3941.538574,3850.769287,4270.769043,3976.923096,4186.153809,4126.666504,4056.410156,3947.179443,426.000000,4.000000,,,,0.000000,4.000000,4.000000,0.000000,4.000000,4.000000,4.000000,4.000000,4.000000,4.000000,1.000000,4.000000,4.000000,4.000000,2.000000,25.000000
1602278927.452216,101.000000,0.000000,3911.794922,4570.256348,4185.128418,4214.871582,3920.512939,4609.230957,3950.256348,3858.461426,4270.769043,3977.435791,4189.743652,4131.794922,4056.410156,3951.794922,356.000000,4.000000,,,,0.000000,4.000000,4.000000,0.000000,4.000000,4.000000,4.000000,4.000000,4.000000,4.000000,1.000000,4.000000,4.000000,4.000000,2.000000,25.000000
1602278927.460043,102.000000,0.000000,3903.076904,4566.666504,4181.538574,4209.230957,3904.102539,4606.153809,3940.512939,3858.461426,4267.179688,3975.897461,4182.563965,4130.256348,4056.923096,3951.281982,443.000000,4.000000,,,,0.000000,4.000000,4.000000,0.000000,4.000000,4.000000,4.000000,4.000000,4.000000,4.000000,1.000000,4.000000,4.000000,4.000000,2.000000,25.000000
1602278927.467781,103.000000,0.000000,3889.230713,4591.282227,4183.077148,4208.205078,3922.564209,4611.794922,3932.820557,3856.923096,4269.743652,3975.384521,4177.948730,4125.128418,4058.974365,3949.743652,241.000000,4.000000,,,,0.000000,4.000000,4.000000,0.000000,4.000000,4.000000,4.000000,4.000000,4.000000,4.000000,1.000000,4.000000,4.000000,4.000000,2.000000,25.000000
1602278927.475619,104.000000,0.000000,3893.846191,4611.794922,4187.692383,4214.871582,3965.128174,4628.717773,3953.846191,3868.718018,4288.205078,3974.358887,4188.205078,4129.743652,4069.230713,3951.794922,426.000000,4.000000,,,,0.000000,4.000000,4.000000,0.000000,4.000000,4.000000,4.000000,4.000000,4.000000,4.000000,1.000000,4.000000,4.000000,4.000000,2.000000,25.000000
1602278927.483457,105.000000,0.000000,3896.923096,4608.717773,4185.128418,4218.461426,3971.794922,4630.769043,3967.179443,3872.307617,4291.282227,3974.871826,4191.282227,4130.256348,4066.666748,3950.256348,356.000000,4.000000,,,,0.000000,4.000000,4.000000,0.000000,4.000000,4.000000,4.000000,4.000000,4.000000,4.000000,1.000000,4.000000,4.000000,4.000000,2.000000,25.000000
1602278927.491295,106.000000,0.000000,3889.743652,4598.461426,4182.563965,4216.410156,3950.769287,4617.948730,3953.846191,3861.538574,4273.333496,3970.769287,4178.974121,4124.102539,4049.743652,3945.128174,443.000000,4.000000,,,,0.000000,4.000000,4.000000,0.000000,4.000000,4.000000,4.000000,4.000000,4.000000,4.000000,1.000000,4.000000,4.000000,4.000000,2.000000,25.000000
1602278927.499133,107.000000,0.000000,3891.281982,4594.358887,4185.128418,4214.358887,3951.794922,4614.358887,3949.230713,3863.076904,4269.230957,3968.718018,4175.384766,4121.538574,4048.718018,3943.076904,241.000000,4.000000,,,,0.000000,4.000000,4.000000,0.000000,4.000000,4.000000,4.000000,4.000000,4.000000,4.000000,1.000000,4.000000,4.000000,4.000000,2.000000,25.000000
1602278927.506971,108.000000,0.000000,3897.948730,4596.922852,4186.153809,4217.436035,3966.153809,4613.333496,3952.820557,3870.769287,4279.487305,3970.769287,4183.077148,4121.538574,4052.820557,3946.666748,426.000000,4.000000,,,,0.000000,4.000000,4.000000,0.000000,4.000000,4.000000,4.000000,4.000000,4.000000,4.000000,1.000000,4.000000,4.000000,4.000000,2.000000,25.000000
1602278927.514897,109.000000,0.000000,3903.589844,4601.025879,4186.153809,4221.025879,3965.641113,4609.230957,3948.205078,3868.205078,4278.974121,3967.179443,4183.077148,4124.102539,4043.076904,3950.769287,356.000000,4.000000,,,,0.000000,4.000000,4.000000,0.000000,4.000000,4.000000,4.000000,4.000000,4.000000,4.000000,1.000000,4.000000,4.000000,4.000000,2.000000,25.000000
1602278927.522723,110.000000,0.000000,3904.615479,4598.974121,4183.589844,4218.461426,3961.538574,4612.307617,3946.666748,3867.692383,4273.846191,3966.153809,4182.563965,4132.820313,4048.205078,3949.743652,443.000000,4.000000,,,,0.000000,4.000000,4.000000,0.000000,4.000000,4.000000,4.000000,4.000000,4.000000,4.000000,1.000000,4.000000,4.000000,4.000000,2.000000,25.000000
1602278927.530449,111.000000,0.000000,3905.641113,4591.282227,4184.615234,4216.410156,3956.410156,4608.717773,3950.256348,3870.769287,4272.820313,3969.230713,4187.692383,4136.410156,4070.256348,3949.743652,241.000000,4.000000,,,,0.000000,4.000000,4.000000,0.000000,4.000000,4.000000,4.000000,4.000000,4.000000,4.000000,1.000000,4.000000,4.000000,4.000000,2.000000,25.000000
1602278927.538275,112.000000,0.000000,3908.718018,4598.974121,4185.128418,4223.589844,3950.256348,4597.948730,3950.769287,3866.666748,4273.846191,3963.589844,4188.717773,4130.769043,4069.230713,3950.769287,426.000000,4.000000,,,,0.000000,4.000000,4.000000,0.000000,4.000000,4.000000,4.000000,4.000000,4.000000,4.000000,1.000000,4.000000,4.000000,4.000000,2.000000,25.000000
1602278927.546000,113.000000,0.000000,3902.051270,4609.230957,4182.563965,4223.077148,3945.641113,4601.025879,3951.794922,3856.923096,4270.256348,3957.435791,4180.000000,4123.077148,4052.307617,3946.153809,356.000000,4.000000,,,,0.000000,4.000000,4.000000,0.000000,4.000000,4.000000,4.000000,4.000000,4.000000,4.000000,1.000000,4.000000,4.000000,4.000000,2.000000,25.000000
1602278927.553928,114.000000,0.000000,3886.153809,4604.102539,4180.512695,4210.256348,3949.743652,4609.743652,3948.205078,3852.307617,4262.563965,3959.487061,4175.384766,4116.922852,4049.743652,3938.974365,443.000000,4.000000,,,,0.000000,4.000000,4.000000,0.000000,4.000000,4.000000,4.000000,4.000000,4.000000,4.000000,1.000000,4.000000,4.000000,4.000000,2.000000,25.000000
1602278927.561756,115.000000,0.000000,3886.153809,4602.051270,4187.179688,4210.769043,3959.487061,4609.743652,3937.948730,3856.410156,4264.102539,3961.538574,4175.897461,4117.948730,4050.769287,3942.564209,241.000000,4.000000,,,,0.000000,4.000000,4.000000,0.000000,4.000000,4.000000,4.000000,4.000000,4.000000,4.000000,1.000000,4.000000,4.000000,4.000000,2.000000,25.000000
1602278927.569683,116.000000,0.000000,3891.281982,4598.461426,4186.153809,4212.820313,3961.538574,4597.948730,3924.102539,3857.948730,4267.179688,3959.487061,4170.769043,4116.410156,4044.615479,3942.564209,426.000000,4.000000,,,,0.000000,4.000000,4.000000,0.000000,4.000000,4.000000,4.000000,4.000000,4.000000,4.000000,1.000000,4.000000,4.000000,4.000000,2.000000,25.000000
1602278927.577511,117.000000,0.000000,3884.102539,4583.589844,4180.512695,4199.487305,3956.410156,4575.897461,3908.205078,3846.666748,4254.871582,3955.897461,4162.563965,4108.205078,4031.794922,3934.358887,356.000000,4.000000,,,,0.000000,4.000000,4.000000,0.000000,4.000000,4.000000,4.000000,4.000000,4.000000,4.000000,1.000000,4.000000,4.000000,4.000000,2.000000,25.000000
1602278927.585438,118.000000,0.000000,3885.128174,4585.128418,4181.538574,4204.102539,3961.538574,4573.846191,3920.512939,3852.307617,4250.256348,3953.846191,4167.179688,4110.769043,4030.769287,3937.435791,443.000000,4.000000,,,,0.000000,4.000000,4.000000,0.000000,4.000000,4.000000,4.000000,4.000000,4.000000,4.000000,1.000000,4.000000,4.000000,4.000000,2.000000,25.000000
1602278927.593367,119.000000,0.000000,3902.051270,4595.384766,4185.641113,4225.641113,3972.820557,4597.948730,3950.256348,3870.769287,4266.153809,3957.435791,4183.589844,4125.128418,4050.769287,3951.794922,241.000000,4.000000,,,,0.000000,4.000000,4.000000,0.000000,4.000000,4.000000,4.000000,4.000000,4.000000,4.000000,1.000000,4.000000,4.000000,4.000000,2.000000,25.000000
1602278927.601197,120.000000,0.000000,3908.718018,4592.820313,4183.589844,4222.563965,3962.564209,4615.897461,3952.820557,3871.281982,4280.512695,3961.538574,4190.769043,4130.769043,4067.692383,3953.846191,426.000000,4.000000,,,,0.000000,4.000000,4.000000,0.000000,4.000000,4.000000,4.000000,4.000000,4.000000,4.000000,1.000000,4.000000,4.000000,4.000000,2.000000,25.000000
1602278927.609027,121.000000,0.000000,3907.179443,4599.487305,4183.589844,4210.769043,3949.743652,4624.102539,3954.358887,3869.743652,4287.179688,3962.564209,4188.717773,4133.333496,4071.281982,3951.281982,356.000000,4.000000,,,,0.000000,4.000000,4.000000,0.000000,4.000000,4.000000,4.000000,4.000000,4.000000,4.000000,1.000000,4.000000,4.000000,4.000000,2.000000,25.000000
1602278927.616954,122.000000,0.000000,3911.281982,4613.333496,4185.128418,4217.436035,3955.384521,4631.794922,3975.897461,3884.615479,4298.461426,3962.051270,4192.820313,4139.487305,4068.718018,3955.897461,443.000000,4.000000,,,,0.000000,4.000000,4.000000,0.000000,4.000000,4.000000,4.000000,4.000000,4.000000,4.000000,1.000000,4.000000,4.000000,4.000000,2.000000,25.000000
1602278927.624781,123.000000,0.000000,3908.718018,4596.922852,4187.179688,4211.282227,3950.769287,4622.563965,3975.897461,3884.615479,4298.974121,3961.538574,4188.717773,4131.794922,4060.000000,3953.333252,241.000000,4.000000,,,,0.000000,4.000000,4.000000,0.000000,4.000000,4.000000,4.000000,4.000000,4.000000,4.000000,1.000000,4.000000,4.000000,4.000000,2.000000,25.000000
1602278927.632708,124.000000,0.000000,3898.461426,4569.230957,4185.641113,4195.384766,3937.948730,4600.512695,3945.128174,3857.435791,4275.384766,3958.461426,4173.333496,4116.410156,4047.692383,3947.179443,426.000000,4.000000,,,,0.000000,4.000000,4.000000,0.000000,4.000000,4.000000,4.000000,4.000000,4.000000,4.000000,1.000000,4.000000,4.000000,4.000000,2.000000,25.000000
1602278927.640535,125.000000,0.000000,3891.794922,4580.000000,4182.563965,4208.717773,3954.358887,4597.948730,3932.820557,3848.205078,4256.410156,3955.897461,4176.922852,4115.897461,4048.205078,3946.153809,356.000000,4.000000,,,,0.000000,4.000000,4.000000,0.000000,4.000000,4.000000,4.000000,4.000000,4.000000,4.000000,1.000000,4.000000,4.000000,4.000000,2.000000,25.000000
1602278927.648261,126.000000,0.000000,3887.179443,4604.102539,4186.666504,4222.563965,3980.512939,4596.410156,3928.718018,3857.435791,4254.871582,3956.410156,4187.179688,4116.410156,4050.769287,3942.564209,443.000000,4.000000,,,,0.000000,4.000000,4.000000,0.000000,4.000000,4.000000,4.000000,4.000000,4.000000,4.000000,1.000000,4.000000,4.000000,4.000000,2.000000,25.000000
1602278927.656088,127.000000,0.000000,3881.538574,4595.897461,4190.256348,4214.358887,3974.871826,4579.487305,3912.820557,3843.076904,4244.615234,3958.461426,4181.025879,4104.102539,4042.051270,3933.846191,241.000000,4.000000,,,,0.000000,4.000000,4.000000,0.000000,4.000000,4.000000,4.000000,4.000000,4.000000,4.000000,1.000000,4.000000,4.000000,4.000000,2.000000,25.000000
1602278927.663814,128.000000,0.000000,3884.615479,4585.641113,4188.205078,4217.948730,3966.666748,4584.615234,3925.641113,3828.205078,4238.461426,3956.923096,4183.589844,4105.641113,4042.051270,3937.948730,426.000000,4.000000,,,,0.000000,4.000000,4.000000,0.000000,4.000000,4.000000,4.000000,4.000000,4.000000,4.000000,1.000000,4.000000,4.000000,4.000000,2.000000,25.000000
1602278927.671641,0.000000,0.000000,3892.820557,4598.461426,4183.077148,4223.589844,3977.948730,4610.769043,3938.974365,3845.641113,4256.922852,3957.435791,4201.538574,4121.025879,4055.384521,3946.666748,0.000000,4.000000,,,,0.000000,4.000000,4.000000,0.000000,4.000000,4.000000,4.000000,4.000000,4.000000,4.000000,1.000000,4.000000,4.000000,4.000000,2.000000,25.000000
1602278927.679367,1.000000,0.000000,3894.871826,4597.436035,4183.077148,4207.692383,3984.102539,4601.538574,3915.897461,3856.923096,4262.051270,3961.025635,4204.615234,4124.102539,4046.666748,3946.666748,421.000000,4.000000,,,,0.000000,4.000000,4.000000,0.000000,4.000000,4.000000,4.000000,4.000000,4.000000,4.000000,1.000000,4.000000,4.000000,4.000000,2.000000,25.000000
1602278927.687193,2.000000,0.000000,3896.410156,4591.794922,4185.641113,4202.563965,3980.512939,4589.743652,3929.230713,3854.358887,4261.538574,3961.025635,4198.974121,4122.051270,4035.897461,3944.615479,385.000000,4.000000,,,,0.000000,4.000000,4.000000,0.000000,4.000000,4.000000,4.000000,4.000000,4.000000,4.000000,1.000000,4.000000,4.000000,4.000000,2.000000,25.000000
1602278927.694919,3.000000,0.000000,3910.769287,4602.051270,4189.743652,4221.538574,3971.794922,4631.794922,3993.333252,3877.435791,4288.205078,3962.051270,4216.410156,4136.410156,4071.794922,3955.384521,447.000000,4.000000,,,,0.000000,4.000000,4.000000,0.000000,4.000000,4.000000,4.000000,4.000000,4.000000,4.000000,1.000000,4.000000,4.000000,4.000000,2.000000,25.000000
1602278927.702745,4.000000,0.000000,3920.512939,4608.205078,4186.666504,4227.179688,3962.051270,4655.897461,4006.153809,3895.384521,4303.589844,3968.718018,4239.487305,4150.769043,4113.333496,3962.564209,476.000000,4.000000,,,,0.000000,4.000000,4.000000,0.000000,4.000000,4.000000,4.000000,4.000000,4.000000,4.000000,1.000000,4.000000,4.000000,4.000000,2.000000,25.000000
1602278927.710470,5.000000,0.000000,3912.820557,4610.256348,4186.153809,4217.436035,3960.512939,4630.256348,3968.718018,3886.153809,4294.358887,3971.281982,4243.077148,4150.769043,4109.743652,3959.487061,412.000000,4.000000,,,,0.000000,4.000000,4.000000,0.000000,4.000000,4.000000,4.000000,4.000000,4.000000,4.000000,1.000000,4.000000,4.000000,4.000000,2.000000,25.000000
1602278927.718296,6.000000,0.000000,3904.615479,4614.871582,4185.128418,4214.871582,3968.205078,4620.000000,3967.179443,3881.538574,4295.897461,3964.615479,4235.384766,4149.230957,4092.307617,3954.358887,473.000000,4.000000,,,,0.000000,4.000000,4.000000,0.000000,4.000000,4.000000,4.000000,4.000000,4.000000,4.000000,1.000000,4.000000,4.000000,4.000000,2.000000,25.000000
1602278927.726022,7.000000,0.000000,3904.615479,4608.205078,4182.563965,4213.846191,3972.307617,4621.025879,3969.743652,3876.410156,4289.743652,3960.000000,4227.179688,4148.717773,4082.051270,3951.794922,395.000000,4.000000,,,,0.000000,4.000000,4.000000,0.000000,4.000000,4.000000,4.000000,4.000000,4.000000,4.000000,1.000000,4.000000,4.000000,4.000000,2.000000,25.000000
1602278927.733847,8.000000,0.000000,3900.512939,4600.000000,4184.615234,4214.871582,3961.025635,4608.717773,3949.743652,3858.974365,4268.205078,3960.512939,4224.615234,4144.615234,4071.794922,3951.281982,410.000000,4.000000,,,,0.000000,4.000000,4.000000,0.000000,4.000000,4.000000,4.000000,4.000000,4.000000,4.000000,1.000000,4.000000,4.000000,4.000000,2.000000,25.000000
1602278927.741572,9.000000,0.000000,3889.230713,4594.358887,4188.205078,4213.846191,3949.230713,4594.871582,3934.358887,3847.692383,4257.436035,3959.487061,4220.000000,4138.461426,4063.076904,3947.692383,57.000000,4.000000,,,,0.000000,4.000000,4.000000,0.000000,4.000000,4.000000,4.000000,4.000000,4.000000,4.000000,1.000000,4.000000,4.000000,4.000000,2.000000,25.000000
1602278927.749398,10.000000,0.000000,3882.051270,4586.666504,4183.589844,4198.974121,3957.948730,4587.179688,3923.589844,3836.410156,4251.282227,3956.410156,4203.077148,4126.153809,4058.461426,3938.461426,444.000000,4.000000,,,,0.000000,4.000000,4.000000,0.000000,4.000000,4.000000,4.000000,4.000000,4.000000,4.000000,1.000000,4.000000,4.000000,4.000000,2.000000,25.000000
1602278927.757123,11.000000,0.000000,3884.615479,4590.769043,4182.051270,4197.436035,3974.871826,4599.487305,3924.102539,3829.743652,4247.692383,3954.358887,4192.307617,4116.922852,4063.076904,3940.512939,241.000000,4.000000,,,,0.000000,4.000000,4.000000,0.000000,4.000000,4.000000,4.000000,4.000000,4.000000,4.000000,1.000000,4.000000,4.000000,4.000000,2.000000,25.000000
1602278927.765050,12.000000,0.000000,3894.871826,4605.128418,4188.205078,4215.897461,3970.769287,4602.051270,3925.641113,3830.256348,4249.230957,3956.410156,4205.641113,4122.051270,4075.384521,3952.307617,426.000000,4.000000,,,,0.000000,4.000000,4.000000,0.000000,4.000000,4.000000,4.000000,4.000000,4.000000,4.000000,1.000000,4.000000,4.000000,4.000000,2.000000,25.000000
1602278927.772878,13.000000,0.000000,3903.589844,4616.410156,4186.666504,4220.512695,3957.948730,4570.769043,3908.205078,3828.718018,4243.589844,3960.000000,4215.384766,4127.692383,4081.025635,3954.358887,356.000000,4.000000,,,,0.000000,4.000000,4.000000,0.000000,4.000000,4.000000,4.000000,4.000000,4.000000,4.000000,1.000000,4.000000,4.000000,4.000000,2.000000,25.000000
1602278927.780805,14.000000,0.000000,3907.692383,4625.128418,4179.487305,4224.102539,3973.333252,4563.077148,3892.307617,3829.230713,4238.974121,3958.461426,4211.282227,4128.205078,4087.179443,3956.410156,444.000000,4.000000,,,,0.000000,4.000000,4.000000,0.000000,4.000000,4.000000,4.000000,4.000000,4.000000,4.000000,1.000000,4.000000,4.000000,4.000000,2.000000,25.000000
1602278927.788632,15.000000,0.000000,3921.025635,4638.974121,4182.563965,4242.051270,3992.307617,4603.077148,3921.538574,3846.666748,4256.410156,3957.435791,4225.641113,4142.051270,4110.256348,3971.794922,241.000000,4.000000,,,,0.000000,4.000000,4.000000,0.000000,4.000000,4.000000,4.000000,4.000000,4.000000,4.000000,1.000000,4.000000,4.000000,4.000000,2.000000,25.000000
1602278927.796559,16.000000,0.000000,3934.358887,4651.794922,4194.871582,4238.461426,3976.410156,4623.077148,3961.538574,3865.641113,4277.436035,3962.564209,4246.153809,4158.461426,4132.820313,3984.615479,0.000000,4.000000,,,,0.000000,4.000000,4.000000,0.000000,4.000000,4.000000,4.000000,4.000000,4.000000,4.000000,1.000000,4.000000,4.000000,4.000000,2.000000,25.000000
1602278927.804386,17.000000,0.000000,3930.769287,4646.666504,4190.256348,4219.487305,3958.974365,4595.384766,3951.281982,3862.564209,4271.794922,3963.076904,4232.307617,4152.820313,4119.487305,3976.410156,0.000000,4.000000,,,,0.000000,4.000000,4.000000,0.000000,4.000000,4.000000,4.000000,4.000000,4.000000,4.000000,1.000000,4.000000,4.000000,4.000000,2.000000,25.000000
1602278927.812313,18.000000,0.000000,3924.615479,4638.461426,4183.077148,4226.666504,3967.692383,4580.512695,3934.871826,3852.820557,4262.051270,3956.923096,4216.410156,4151.282227,4098.974121,3972.307617,0.000000,4.000000,,,,0.000000,4.000000,4.000000,0.000000,4.000000,4.000000,4.000000,4.000000,4.000000,4.000000,1.000000,4.000000,4.000000,4.000000,2.000000,25.000000
1602278927.820140,19.000000,0.000000,3934.358887,4651.794922,4187.692383,4246.153809,3972.307617,4602.051270,3952.820557,3857.435791,4269.743652,3957.435791,4235.897461,4166.153809,4118.974121,3982.051270,0.000000,4.000000,,,,0.000000,4.000000,4.000000,0.000000,4.000000,4.000000,4.000000,4.000000,4.000000,4.000000,1.000000,4.000000,4.000000,4.000000,2.000000,25.000000
1602278927.827866,20.000000,0.000000,3939.487061,4661.025879,4191.282227,4244.102539,3961.538574,4604.615234,3949.743652,3863.076904,4268.205078,3960.000000,4236.922852,4162.563965,4130.769043,3981.025635,0.000000,4.000000,,,,0.000000,4.000000,4.000000,0.000000,4.000000,4.000000,4.000000,4.000000,4.000000,4.000000,1.000000,4.000000,4.000000,4.000000,2.000000,25.000000
1602278927.835693,21.000000,0.000000,3927.179443,4654.358887,4186.666504,4232.820313,3956.923096,4583.589844,3924.102539,3860.512939,4253.846191,3956.410156,4207.692383,4142.051270,4102.563965,3964.615479,0.000000,4.000000,,,,0.000000,4.000000,4.000000,0.000000,4.000000,4.000000,4.000000,4.000000,4.000000,4.000000,1.000000,4.000000,4.000000,4.000000,2.000000,25.000000
1602278927.843419,22.000000,0.000000,3921.025635,4652.820313,4186.666504,4231.794922,3970.769287,4591.282227,3931.794922,3856.923096,4255.897461,3956.923096,4209.743652,4139.487305,4093.333252,3962.051270,0.000000,4.000000,,,,0.000000,4.000000,4.000000,0.000000,4.000000,4.000000,4.000000,4.000000,4.000000,4.000000,1.000000,4.000000,4.000000,4.000000,2.000000,25.000000
1602278927.851245,23.000000,0.000000,3916.410156,4643.589844,4185.641113,4230.769043,3988.718018,4601.025879,3942.564209,3849.230713,4261.025879,3959.487061,4223.077148,4141.538574,4100.000000,3963.076904,0.000000,4.000000,,,,0.000000,4.000000,4.000000,0.000000,4.000000,4.000000,4.000000,4.000000,4.000000,4.000000,1.000000,4.000000,4.000000,4.000000,2.000000,25.000000
1602278927.858972,24.000000,0.000000,3904.615479,4622.051270,4183.589844,4224.102539,3978.974365,4581.538574,3924.102539,3843.589844,4253.846191,3960.512939,4209.230957,4132.307617,4087.179443,3953.333252,0.000000,4.000000,,,,0.000000,4.000000,4.000000,0.000000,4.000000,4.000000,4.000000,4.000000,4.000000,4.000000,1.000000,4.000000,4.000000,4.000000,2.000000,25.000000
1602278927.866798,25.000000,0.000000,3892.820557,4608.717773,4184.102539,4213.333496,3948.205078,4576.922852,3921.538574,3853.333252,4254.358887,3957.948730,4195.384766,4124.102539,4080.512939,3949.230713,0.000000,4.000000,,,,0.000000,4.000000,4.000000,0.000000,4.000000,4.000000,4.000000,4.000000,4.000000,4.000000,1.000000,4.000000,4.000000,4.000000,2.000000,25.000000
1602278927.874524,26.000000,0.000000,3891.794922,4611.794922,4184.615234,4210.769043,3947.179443,4589.230957,3937.948730,3856.410156,4258.974121,3953.846191,4200.000000,4124.615234,4086.666748,3954.358887,0.000000,4.000000,,,,0.000000,4.000000,4.000000,0.000000,4.000000,4.000000,4.000000,4.000000,4.000000,4.000000,1.000000,4.000000,4.000000,4.000000,2.000000,25.000000
1602278927.882350,27.000000,0.000000,3901.538574,4620.512695,4182.051270,4224.615234,3970.256348,4593.846191,3945.128174,3854.358887,4261.538574,3954.871826,4211.282227,4133.846191,4088.205078,3957.435791,0.000000,4.000000,,,,0.000000,4.000000,4.000000,0.000000,4.000000,4.000000,4.000000,4.000000,4.000000,4.000000,1.000000,4.000000,4.000000,4.000000,2.000000,25.000000
1602278927.890076,28.000000,0.000000,3904.615479,4610.256348,4181.538574,4231.282227,3974.358887,4605.641113,3945.128174,3859.487061,4263.077148,3958.974365,4212.307617,4135.897461,4081.025635,3954.871826,0.000000,4.000000,,,,0.000000,4.000000,4.000000,0.000000,4.000000,4.000000,4.000000,4.000000,4.000000,4.000000,1.000000,4.000000,4.000000,4.000000,2.000000,25.000000
1602278927.897902,29.000000,0.000000,3901.538574,4589.743652,4184.615234,4216.922852,3964.615479,4606.666504,3940.512939,3850.256348,4257.948730,3957.948730,4194.871582,4122.563965,4066.153809,3949.743652,0.000000,4.000000,,,,0.000000,4.000000,4.000000,0.000000,4.000000,4.000000,4.000000,4.000000,4.000000,4.000000,1.000000,4.000000,4.000000,4.000000,2.000000,25.000000
1602278927.905627,30.000000,0.000000,3899.487061,4603.589844,4188.205078,4211.282227,3964.615479,4594.871582,3940.512939,3838.974365,4256.410156,3954.871826,4189.743652,4116.922852,4062.564209,3950.256348,0.000000,4.000000,,,,0.000000,4.000000,4.000000,0.000000,4.000000,4.000000,4.000000,4.000000,4.000000,4.000000,1.000000,4.000000,4.000000,4.000000,2.000000,25.000000
1602278927.913453,31.000000,0.000000,3904.615479,4629.230957,4187.692383,4223.077148,3973.333252,4598.974121,3947.692383,3849.230713,4260.512695,3956.410156,4205.641113,4127.179688,4073.333252,3955.384521,0.000000,4.000000,,,,0.000000,4.000000,4.000000,0.000000,4.000000,4.000000,4.000000,4.000000,4.000000,4.000000,1.000000,4.000000,4.000000,4.000000,2.000000,25.000000
1602278927.921178,32.000000,0.000000,3905.641113,4614.871582,4183.077148,4222.051270,3975.384521,4598.461426,3942.564209,3849.230713,4253.333496,3954.871826,4205.128418,4127.179688,4067.692383,3951.794922,0.000000,4.000000,,,,0.000000,4.000000,4.000000,0.000000,4.000000,4.000000,4.000000,4.000000,4.000000,4.000000,1.000000,4.000000,4.000000,4.000000,2.000000,25.000000
1602278927.929105,33.000000,0.000000,3901.538574,4598.461426,4183.589844,4215.897461,3974.358887,4586.153809,3933.846191,3842.051270,4255.384766,3954.871826,4195.384766,4123.077148,4055.384521,3949.743652,0.000000,4.000000,,,,0.000000,4.000000,4.000000,0.000000,4.000000,4.000000,4.000000,4.000000,4.000000,4.000000,1.000000,4.000000,4.000000,4.000000,2.000000,25.000000
1602278927.936933,34.000000,0.000000,3900.512939,4609.743652,4184.615234,4222.051270,3978.461426,4593.846191,3935.897461,3859.487061,4281.025879,3958.974365,4204.102539,4128.205078,4066.153809,3953.846191,0.000000,4.000000,,,,0.000000,4.000000,4.000000,0.000000,4.000000,4.000000,4.000000,4.000000,4.000000,4.000000,1.000000,4.000000,4.000000,4.000000,2.000000,25.000000
1602278927.944860,35.000000,0.000000,3904.615479,4610.769043,4186.153809,4222.051270,3976.923096,4608.717773,3944.615479,3873.846191,4287.692383,3962.564209,4218.461426,4132.820313,4078.461426,3957.948730,0.000000,4.000000,,,,0.000000,4.000000,4.000000,0.000000,4.000000,4.000000,4.000000,4.000000,4.000000,4.000000,1.000000,4.000000,4.000000,4.000000,2.000000,25.000000
1602278927.952687,36.000000,0.000000,3904.615479,4606.153809,4183.077148,4218.461426,3968.205078,4606.666504,3953.846191,3866.153809,4273.333496,3962.051270,4220.512695,4132.820313,4070.256348,3955.897461,0.000000,4.000000,,,,0.000000,4.000000,4.000000,0.000000,4.000000,4.000000,4.000000,4.000000,4.000000,4.000000,1.000000,4.000000,4.000000,4.000000,2.000000,25.000000
1602278927.960614,37.000000,0.000000,3894.871826,4607.179688,4183.077148,4218.974121,3966.666748,4591.282227,3942.051270,3855.897461,4256.922852,3958.461426,4204.102539,4125.128418,4059.487061,3951.281982,0.000000,4.000000,,,,0.000000,4.000000,4.000000,0.000000,4.000000,4.000000,4.000000,4.000000,4.000000,4.000000,1.000000,4.000000,4.000000,4.000000,2.000000,25.000000
1602278927.968441,38.000000,0.000000,3889.230713,4601.025879,4182.563965,4214.871582,3974.358887,4581.538574,3918.461426,3845.128174,4243.589844,3955.897461,4189.743652,4116.410156,4063.076904,3948.718018,0.000000,4.000000,,,,0.000000,4.000000,4.000000,0.000000,4.000000,4.000000,4.000000,4.000000,4.000000,4.000000,1.000000,4.000000,4.000000,4.000000,2.000000,25.000000
1602278927.976368,39.000000,0.000000,3894.871826,4595.897461,4183.077148,4214.871582,3978.974365,4595.384766,3927.692383,3843.076904,4249.230957,3953.846191,4196.410156,4121.025879,4066.666748,3952.820557,0.000000,4.000000,,,,0.000000,4.000000,4.000000,0.000000,4.000000,4.000000,4.000000,4.000000,4.000000,4.000000,1.000000,4.000000,4.000000,4.000000,2.000000,25.000000
1602278927.984195,40.000000,0.000000,3898.974365,4604.102539,4183.589844,4227.692383,3981.025635,4611.282227,3949.230713,3858.461426,4271.282227,3958.461426,4204.102539,4126.666504,4058.974365,3953.846191,0.000000,4.000000,,,,0.000000,4.000000,4.000000,0.000000,4.000000,4.000000,4.000000,4.000000,4.000000,4.000000,1.000000,4.000000,4.000000,4.000000,2.000000,25.000000
1602278927.992122,41.000000,0.000000,3896.923096,4602.051270,4186.666504,4228.205078,3983.076904,4592.820313,3931.794922,3865.128174,4273.846191,3962.051270,4194.358887,4116.922852,4051.794922,3949.743652,0.000000,4.000000,,,,0.000000,4.000000,4.000000,0.000000,4.000000,4.000000,4.000000,4.000000,4.000000,4.000000,1.000000,4.000000,4.000000,4.000000,2.000000,25.000000
1602278927.999948,42.000000,0.000000,3893.846191,4600.512695,4186.666504,4216.410156,3978.974365,4585.641113,3928.718018,3860.000000,4268.205078,3961.025635,4188.205078,4113.846191,4055.384521,3947.179443,0.000000,4.000000,,,,0.000000,4.000000,4.000000,0.000000,4.000000,4.000000,4.000000,4.000000,4.000000,4.000000,1.000000,4.000000,4.000000,4.000000,2.000000,25.000000
1602278928.007675,43.000000,0.000000,3891.281982,4611.794922,4183.589844,4213.333496,3966.666748,4609.743652,3966.153809,3863.076904,4274.871582,3963.076904,4196.922852,4124.615234,4065.128174,3949.743652,0.000000,4.000000,,,,0.000000,4.000000,4.000000,0.000000,4.000000,4.000000,4.000000,4.000000,4.000000,4.000000,1.000000,4.000000,4.000000,4.000000,2.000000,25.000000
1602278928.015502,44.000000,0.000000,3892.820557,4611.282227,4184.615234,4215.897461,3963.589844,4612.307617,3977.435791,3864.102539,4274.358887,3968.718018,4205.641113,4129.743652,4070.769287,3956.410156,0.000000,4.000000,,,,0.000000,4.000000,4.000000,0.000000,4.000000,4.000000,4.000000,4.000000,4.000000,4.000000,1.000000,4.000000,4.000000,4.000000,2.000000,25.000000
1602278928.023229,45.000000,0.000000,3904.102539,4608.717773,4184.102539,4222.051270,3979.487061,4598.974121,3955.897461,3863.076904,4275.384766,3967.692383,4208.717773,4134.358887,4074.358887,3958.461426,0.000000,4.000000,,,,0.000000,4.000000,4.000000,0.000000,4.000000,4.000000,4.000000,4.000000,4.000000,4.000000,1.000000,4.000000,4.000000,4.000000,2.000000,25.000000
1602278928.031055,46.000000,0.000000,3911.794922,4615.897461,4183.077148,4234.358887,3982.051270,4603.589844,3944.615479,3864.615479,4278.974121,3962.564209,4204.102539,4138.974121,4072.820557,3954.871826,0.000000,4.000000,,,,0.000000,4.000000,4.000000,0.000000,4.000000,4.000000,4.000000,4.000000,4.000000,4.000000,1.000000,4.000000,4.000000,4.000000,2.000000,25.000000
1602278928.038781,47.000000,0.000000,3906.153809,4616.922852,4183.077148,4232.307617,3968.205078,4612.820313,3949.230713,3865.128174,4271.794922,3964.102539,4197.948730,4134.358887,4062.564209,3953.333252,0.000000,4.000000,,,,0.000000,4.000000,4.000000,0.000000,4.000000,4.000000,4.000000,4.000000,4.000000,4.000000,1.000000,4.000000,4.000000,4.000000,2.000000,25.000000
1602278928.046608,48.000000,0.000000,3905.641113,4614.871582,4184.102539,4217.948730,3971.281982,4607.179688,3951.794922,3862.051270,4267.692383,3964.102539,4198.461426,4128.205078,4058.461426,3955.897461,0.000000,4.000000,,,,0.000000,4.000000,4.000000,0.000000,4.000000,4.000000,4.000000,4.000000,4.000000,4.000000,1.000000,4.000000,4.000000,4.000000,2.000000,25.000000
1602278928.054333,49.000000,0.000000,3907.179443,4613.333496,4182.563965,4221.025879,3984.615479,4585.128418,3944.102539,3859.487061,4269.743652,3960.000000,4196.922852,4124.102539,4063.589844,3952.820557,0.000000,4.000000,,,,0.000000,4.000000,4.000000,0.000000,4.000000,4.000000,4.000000,4.000000,4.000000,4.000000,1.000000,4.000000,4.000000,4.000000,2.000000,25.000000
1602278928.062159,50.000000,0.000000,3900.512939,4606.153809,4186.153809,4229.743652,3973.333252,4574.871582,3931.794922,3861.538574,4267.179688,3957.948730,4185.641113,4118.461426,4061.025635,3945.128174,0.000000,4.000000,,,,0.000000,4.000000,4.000000,0.000000,4.000000,4.000000,4.000000,4.000000,4.000000,4.000000,1.000000,4.000000,4.000000,4.000000,2.000000,25.000000
1602278928.069885,51.000000,0.000000,3893.333252,4603.077148,4185.641113,4221.025879,3953.846191,4595.384766,3933.846191,3862.051270,4268.205078,3954.871826,4174.871582,4111.282227,4048.718018,3938.974365,0.000000,4.000000,,,,0.000000,4.000000,4.000000,0.000000,4.000000,4.000000,4.000000,4.000000,4.000000,4.000000,1.000000,4.000000,4.000000,4.000000,2.000000,25.000000
1602278928.077711,52.000000,0.000000,3899.487061,4608.717773,4182.051270,4213.333496,3960.512939,4616.410156,3948.718018,3857.948730,4270.256348,3956.923096,4184.102539,4118.461426,4051.281982,3944.615479,0.000000,4.000000,,,,0.000000,4.000000,4.000000,0.000000,4.000000,4.000000,4.000000,4.000000,4.000000,4.000000,1.000000,4.000000,4.000000,4.000000,2.000000,25.000000
1602278928.085436,53.000000,0.000000,3906.666748,4609.743652,4180.512695,4218.974121,3975.384521,4602.051270,3944.102539,3852.820557,4258.461426,3963.076904,4197.948730,4130.769043,4058.974365,3952.307617,0.000000,4.000000,,,,0.000000,4.000000,4.000000,0.000000,4.000000,4.000000,4.000000,4.000000,4.000000,4.000000,1.000000,4.000000,4.000000,4.000000,2.000000,25.000000
1602278928.093262,54.000000,0.000000,3902.051270,4603.589844,4183.589844,4228.717773,3976.410156,4579.487305,3929.743652,3849.743652,4251.282227,3960.512939,4190.769043,4128.717773,4049.743652,3952.820557,0.000000,4.000000,,,,0.000000,4.000000,4.000000,0.000000,4.000000,4.000000,4.000000,4.000000,4.000000,4.000000,1.000000,4.000000,4.000000,4.000000,2.000000,25.000000
1602278928.100987,55.000000,0.000000,3903.076904,4610.256348,4181.025879,4241.538574,3969.743652,4591.794922,3945.128174,3860.000000,4270.769043,3954.358887,4186.666504,4123.077148,4053.846191,3950.256348,0.000000,4.000000,,,,0.000000,4.000000,4.000000,0.000000,4.000000,4.000000,4.000000,4.000000,4.000000,4.000000,1.000000,4.000000,4.000000,4.000000,2.000000,25.000000
1602278928.108914,56.000000,0.000000,3914.871826,4624.615234,4180.512695,4243.077148,3961.025635,4603.077148,3958.974365,3873.333252,4282.563965,3959.487061,4201.025879,4128.717773,4080.512939,3954.871826,0.000000,4.000000,,,,0.000000,4.000000,4.000000,0.000000,4.000000,4.000000,4.000000,4.000000,4.000000,4.000000,1.000000,4.000000,4.000000,4.000000,2.000000,25.000000
1602278928.116742,57.000000,0.000000,3920.512939,4613.846191,4183.589844,4227.179688,3964.102539,4582.051270,3940.512939,3866.153809,4262.051270,3966.153809,4207.692383,4135.897461,4087.179443,3960.512939,0.000000,4.000000,,,,0.000000,4.000000,4.000000,0.000000,4.000000,4.000000,4.000000,4.000000,4.000000,4.000000,1.000000,4.000000,4.000000,4.000000,2.000000,25.000000
1602278928.124569,58.000000,0.000000,3915.384521,4589.743652,4184.615234,4228.717773,3969.743652,4561.538574,3928.205078,3852.820557,4249.743652,3963.076904,4197.948730,4131.794922,4072.820557,3958.461426,0.000000,4.000000,,,,0.000000,4.000000,4.000000,0.000000,4.000000,4.000000,4.000000,4.000000,4.000000,4.000000,1.000000,4.000000,4.000000,4.000000,2.000000,25.000000
1602278928.132294,59.000000,0.000000,3916.410156,4607.692383,4183.589844,4252.307617,3967.179443,4583.077148,3950.769287,3873.333252,4279.487305,3963.589844,4201.025879,4132.820313,4076.410156,3959.487061,0.000000,4.000000,,,,0.000000,4.000000,4.000000,0.000000,4.000000,4.000000,4.000000,4.000000,4.000000,4.000000,1.000000,4.000000,4.000000,4.000000,2.000000,25.000000
1602278928.140221,60.000000,0.000000,3916.410156,4642.051270,4188.717773,4248.205078,3969.230713,4626.153809,3982.564209,3909.743652,4319.487305,3970.256348,4215.384766,4140.000000,4092.307617,3963.589844,0.000000,4.000000,,,,0.000000,4.000000,4.000000,0.000000,4.000000,4.000000,4.000000,4.000000,4.000000,4.000000,1.000000,4.000000,4.000000,4.000000,2.000000,25.000000
1602278928.148048,61.000000,0.000000,3907.179443,4628.717773,4190.256348,4220.000000,3976.923096,4640.512695,3992.307617,3904.102539,4317.436035,3966.666748,4211.794922,4134.358887,4090.769287,3961.025635,0.000000,4.000000,,,,0.000000,4.000000,4.000000,0.000000,4.000000,4.000000,4.000000,4.000000,4.000000,4.000000,1.000000,4.000000,4.000000,4.000000,2.000000,25.000000
1602278928.155975,62.000000,0.000000,3899.487061,4607.179688,4182.563965,4217.436035,3978.974365,4620.000000,3970.256348,3871.281982,4283.589844,3954.871826,4196.922852,4121.025879,4077.435791,3948.718018,0.000000,4.000000,,,,0.000000,4.000000,4.000000,0.000000,4.000000,4.000000,4.000000,4.000000,4.000000,4.000000,1.000000,4.000000,4.000000,4.000000,2.000000,25.000000
1602278928.163802,63.000000,0.000000,3900.000000,4616.410156,4181.025879,4235.384766,3974.871826,4598.461426,3943.589844,3858.974365,4263.077148,3954.358887,4193.846191,4118.461426,4065.641113,3945.641113,0.000000,4.000000,,,,0.000000,4.000000,4.000000,0.000000,4.000000,4.000000,4.000000,4.000000,4.000000,4.000000,1.000000,4.000000,4.000000,4.000000,2.000000,25.000000
1602278928.171728,64.000000,0.000000,3902.051270,4623.077148,4183.589844,4243.589844,3969.230713,4601.538574,3949.230713,3865.128174,4263.589844,3957.948730,4200.512695,4122.051270,4060.512939,3951.281982,0.000000,4.000000,,,,0.000000,4.000000,4.000000,0.000000,4.000000,4.000000,4.000000,4.000000,4.000000,4.000000,1.000000,4.000000,4.000000,4.000000,2.000000,25.000000
1602278928.179555,65.000000,0.000000,3899.487061,4608.205078,4184.102539,4236.410156,3963.589844,4595.897461,3949.743652,3858.461426,4255.384766,3950.769287,4193.333496,4120.000000,4056.410156,3951.794922,421.000000,4.000000,,,,0.000000,4.000000,4.000000,0.000000,4.000000,4.000000,4.000000,4.000000,4.000000,4.000000,1.000000,4.000000,4.000000,4.000000,2.000000,25.000000
1602278928.187281,66.000000,0.000000,3894.871826,4596.922852,4182.051270,4229.743652,3962.051270,4581.025879,3937.435791,3849.230713,4243.077148,3949.230713,4181.025879,4114.871582,4052.307617,3945.128174,385.000000,4.000000,,,,0.000000,4.000000,4.000000,0.000000,4.000000,4.000000,4.000000,4.000000,4.000000,4.000000,1.000000,4.000000,4.000000,4.000000,2.000000,25.000000
1602278928.195108,67.000000,0.000000,3898.461426,4599.487305,4184.615234,4234.358887,3962.051270,4594.358887,3948.718018,3862.564209,4257.948730,3954.358887,4184.102539,4116.410156,4060.512939,3947.692383,447.000000,4.000000,,,,0.000000,4.000000,4.000000,0.000000,4.000000,4.000000,4.000000,4.000000,4.000000,4.000000,1.000000,4.000000,4.000000,4.000000,2.000000,25.000000
1602278928.202834,68.000000,0.000000,3904.615479,4607.692383,4183.589844,4234.871582,3964.615479,4611.282227,3963.589844,3874.358887,4278.461426,3952.307617,4192.307617,4120.512695,4071.281982,3953.846191,476.000000,4.000000,,,,0.000000,4.000000,4.000000,0.000000,4.000000,4.000000,4.000000,4.000000,4.000000,4.000000,1.000000,4.000000,4.000000,4.000000,2.000000,25.000000
1602278928.210660,69.000000,0.000000,3906.666748,4614.358887,4183.589844,4230.256348,3969.743652,4599.487305,3952.820557,3867.179443,4275.384766,3951.794922,4196.410156,4125.641113,4071.281982,3955.897461,412.000000,4.000000,,,,0.000000,4.000000,4.000000,0.000000,4.000000,4.000000,4.000000,4.000000,4.000000,4.000000,1.000000,4.000000,4.000000,4.000000,2.000000,25.000000
1602278928.218386,70.000000,0.000000,3906.666748,4622.051270,4181.538574,4239.487305,3972.820557,4591.794922,3950.769287,3868.205078,4276.410156,3957.948730,4205.128418,4130.769043,4074.358887,3956.410156,473.000000,4.000000,,,,0.000000,4.000000,4.000000,0.000000,4.000000,4.000000,4.000000,4.000000,4.000000,4.000000,1.000000,4.000000,4.000000,4.000000,2.000000,25.000000
1602278928.226213,71.000000,0.000000,3904.102539,4621.025879,4184.102539,4244.615234,3973.846191,4598.461426,3955.384521,3875.897461,4284.615234,3959.487061,4207.692383,4130.256348,4080.000000,3955.384521,395.000000,4.000000,,,,0.000000,4.000000,4.000000,0.000000,4.000000,4.000000,4.000000,4.000000,4.000000,4.000000,1.000000,4.000000,4.000000,4.000000,2.000000,25.000000
1602278928.233939,72.000000,0.000000,3898.974365,4607.692383,4186.153809,4232.307617,3973.846191,4591.282227,3940.000000,3865.641113,4277.948730,3955.897461,4200.000000,4125.128418,4078.974365,3950.769287,410.000000,4.000000,,,,0.000000,4.000000,4.000000,0.000000,4.000000,4.000000,4.000000,4.000000,4.000000,4.000000,1.000000,4.000000,4.000000,4.000000,2.000000,25.000000
1602278928.241764,73.000000,0.000000,3905.641113,4614.871582,4186.153809,4235.897461,3977.948730,4588.717773,3949.230713,3860.512939,4271.794922,3956.923096,4207.692383,4130.769043,4085.641113,3958.974365,57.000000,4.000000,,,,0.000000,4.000000,4.000000,0.000000,4.000000,4.000000,4.000000,4.000000,4.000000,4.000000,1.000000,4.000000,4.000000,4.000000,2.000000,25.000000
1602278928.249490,74.000000,0.000000,3921.025635,4632.820313,4185.128418,4258.974121,3983.589844,4612.820313,3983.589844,3878.974365,4283.589844,3959.487061,4222.563965,4144.102539,4100.000000,3971.794922,444.000000,4.000000,,,,0.000000,4.000000,4.000000,0.000000,4.000000,4.000000,4.000000,4.000000,4.000000,4.000000,1.000000,4.000000,4.000000,4.000000,2.000000,25.000000
1602278928.257316,75.000000,0.000000,3922.564209,4625.641113,4187.179688,4260.512695,3982.564209,4615.384766,3976.923096,3882.051270,4288.205078,3958.461426,4215.897461,4143.077148,4094.871826,3967.179443,243.000000,4.000000,,,,0.000000,4.000000,4.000000,0.000000,4.000000,4.000000,4.000000,4.000000,4.000000,4.000000,1.000000,4.000000,4.000000,4.000000,2.000000,25.000000
1602278928.265041,76.000000,0.000000,3912.307617,4615.897461,4187.179688,4247.179688,3976.410156,4591.794922,3945.128174,3865.641113,4280.000000,3954.871826,4205.641113,4132.820313,4083.589844,3961.025635,426.000000,4.000000,,,,0.000000,4.000000,4.000000,0.000000,4.000000,4.000000,4.000000,4.000000,4.000000,4.000000,1.000000,4.000000,4.000000,4.000000,2.000000,25.000000
1602278928.272867,77.000000,0.000000,3905.641113,4621.538574,4182.051270,4246.666504,3974.358887,4591.794922,3948.718018,3867.692383,4278.461426,3955.384521,4207.179688,4136.922852,4083.076904,3960.000000,356.000000,4.000000,,,,0.000000,4.000000,4.000000,0.000000,4.000000,4.000000,4.000000,4.000000,4.000000,4.000000,1.000000,4.000000,4.000000,4.000000,2.000000,25.000000
1602278928.280592,78.000000,0.000000,3906.153809,4614.871582,4183.589844,4248.717773,3971.794922,4598.461426,3955.897461,3874.358887,4280.000000,3955.897461,4205.641113,4139.487305,4080.000000,3956.923096,444.000000,4.000000,,,,0.000000,4.000000,4.000000,0.000000,4.000000,4.000000,4.000000,4.000000,4.000000,4.000000,1.000000,4.000000,4.000000,4.000000,2.000000,25.000000
1602278928.288418,79.000000,0.000000,3913.333252,4609.230957,4188.717773,4248.717773,3976.923096,4589.230957,3951.794922,3875.897461,4285.128418,3954.358887,4205.641113,4134.358887,4081.538574,3958.974365,243.000000,4.000000,,,,0.000000,4.000000,4.000000,0.000000,4.000000,4.000000,4.000000,4.000000,4.000000,4.000000,1.000000,4.000000,4.000000,4.000000,2.000000,25.000000
1602278928.296143,80.000000,0.000000,3926.153809,4629.230957,4187.692383,4257.948730,3981.538574,4596.410156,3969.743652,3880.512939,4289.230957,3956.923096,4218.974121,4141.538574,4100.000000,3970.769287,426.000000,4.000000,,,,0.000000,4.000000,4.000000,0.000000,4.000000,4.000000,4.000000,4.000000,4.000000,4.000000,1.000000,4.000000,4.000000,4.000000,2.000000,25.000000
1602278928.304070,81.000000,0.000000,3928.205078,4640.000000,4181.538574,4266.666504,3972.820557,4618.461426,3986.153809,3880.512939,4288.717773,3958.974365,4225.641113,4150.769043,4112.307617,3971.281982,356.000000,4.000000,,,,0.000000,4.000000,4.000000,0.000000,4.000000,4.000000,4.000000,4.000000,4.000000,4.000000,1.000000,4.000000,4.000000,4.000000,2.000000,25.000000
1602278928.311897,82.000000,0.000000,3908.205078,4618.974121,4182.563965,4247.692383,3971.281982,4594.358887,3955.384521,3871.794922,4280.512695,3955.384521,4206.153809,4138.461426,4089.743652,3960.000000,444.000000,4.000000,,,,0.000000,4.000000,4.000000,0.000000,4.000000,4.000000,4.000000,4.000000,4.000000,4.000000,1.000000,4.000000,4.000000,4.000000,2.000000,25.000000
1602278928.319824,83.000000,0.000000,3894.871826,4597.948730,4182.051270,4225.128418,3972.820557,4557.436035,3919.487061,3859.487061,4262.563965,3951.794922,4182.051270,4118.461426,4062.051270,3950.769287,243.000000,4.000000,,,,0.000000,4.000000,4.000000,0.000000,4.000000,4.000000,4.000000,4.000000,4.000000,4.000000,1.000000,4.000000,4.000000,4.000000,2.000000,25.000000
1602278928.327651,84.000000,0.000000,3909.743652,4608.205078,4183.077148,4237.948730,3963.076904,4587.179688,3948.718018,3862.051270,4262.051270,3951.281982,4186.666504,4122.051270,4067.692383,3956.410156,426.000000,4.000000,,,,0.000000,4.000000,4.000000,0.000000,4.000000,4.000000,4.000000,4.000000,4.000000,4.000000,1.000000,4.000000,4.000000,4.000000,2.000000,25.000000
1602278928.335578,85.000000,0.000000,3918.461426,4626.666504,4183.077148,4260.000000,3968.205078,4624.615234,3981.538574,3874.871826,4284.102539,3952.307617,4200.000000,4132.820313,4082.564209,3963.076904,356.000000,4.000000,,,,0.000000,4.000000,4.000000,0.000000,4.000000,4.000000,4.000000,4.000000,4.000000,4.000000,1.000000,4.000000,4.000000,4.000000,2.000000,25.000000
1602278928.343405,86.000000,0.000000,3905.128174,4624.102539,4184.615234,4256.922852,3981.538574,4608.205078,3965.128174,3877.435791,4285.641113,3951.794922,4191.794922,4129.743652,4073.846191,3961.538574,444.000000,4.000000,,,,0.000000,4.000000,4.000000,0.000000,4.000000,4.000000,4.000000,4.000000,4.000000,4.000000,1.000000,4.000000,4.000000,4.000000,2.000000,25.000000
1602278928.351332,87.000000,0.000000,3902.051270,4622.051270,4183.589844,4244.102539,3978.974365,4592.820313,3952.307617,3871.794922,4267.179688,3954.358887,4188.717773,4125.641113,4068.718018,3959.487061,243.000000,4.000000,,,,0.000000,4.000000,4.000000,0.000000,4.000000,4.000000,4.000000,4.000000,4.000000,4.000000,1.000000,4.000000,4.000000,4.000000,2.000000,25.000000
1602278928.359159,88.000000,0.000000,3913.333252,4621.538574,4185.641113,4242.563965,3974.358887,4597.948730,3957.948730,3867.692383,4265.128418,3957.435791,4201.538574,4129.743652,4080.000000,3960.512939,426.000000,4.000000,,,,0.000000,4.000000,4.000000,0.000000,4.000000,4.000000,4.000000,4.000000,4.000000,4.000000,1.000000,4.000000,4.000000,4.000000,2.000000,25.000000
1602278928.367085,89.000000,0.000000,3907.692383,4608.717773,4186.153809,4242.563965,3973.846191,4578.461426,3941.025635,3856.410156,4266.666504,3949.743652,4196.410156,4124.102539,4072.820557,3955.897461,356.000000,4.000000,,,,0.000000,4.000000,4.000000,0.000000,4.000000,4.000000,4.000000,4.000000,4.000000,4.000000,1.000000,4.000000,4.000000,4.000000,2.000000,25.000000
1602278928.374912,90.000000,0.000000,3904.102539,4612.820313,4185.128418,4236.922852,3968.205078,4573.846191,3934.358887,3848.205078,4261.538574,3941.025635,4190.769043,4121.025879,4065.128174,3956.410156,444.000000,4.000000,,,,0.000000,4.000000,4.000000,0.000000,4.000000,4.000000,4.000000,4.000000,4.000000,4.000000,1.000000,4.000000,4.000000,4.000000,2.000000,25.000000
1602278928.382738,91.000000,0.000000,3917.435791,4628.717773,4183.589844,4239.487305,3970.256348,4596.922852,3950.256348,3860.000000,4263.589844,3945.641113,4210.769043,4136.410156,4077.435791,3964.615479,243.000000,4.000000,,,,0.000000,4.000000,4.000000,0.000000,4.000000,4.000000,4.000000,4.000000,4.000000,4.000000,1.000000,4.000000,4.000000,4.000000,2.000000,25.000000
1602278928.390564,92.000000,0.000000,3922.564209,4621.538574,4185.641113,4248.205078,3975.897461,4590.256348,3938.974365,3870.769287,4269.743652,3956.410156,4224.102539,4144.615234,4085.641113,3966.666748,426.000000,4.000000,,,,0.000000,4.000000,4.000000,0.000000,4.000000,4.000000,4.000000,4.000000,4.000000,4.000000,1.000000,4.000000,4.000000,4.000000,2.000000,25.000000
1602278928.398291,93.000000,0.000000,3921.025635,4618.461426,4189.230957,4252.307617,3968.718018,4585.128418,3944.102539,3874.871826,4278.461426,3956.410156,4223.077148,4141.025879,4088.718018,3965.128174,356.000000,4.000000,,,,0.000000,4.000000,4.000000,0.000000,4.000000,4.000000,4.000000,4.000000,4.000000,4.000000,1.000000,4.000000,4.000000,4.000000,2.000000,25.000000
1602278928.406117,94.000000,0.000000,3921.538574,4631.282227,4186.153809,4245.128418,3963.589844,4615.384766,3987.692383,3885.128174,4287.692383,3955.384521,4228.717773,4143.077148,4094.871826,3964.615479,444.000000,4.000000,,,,0.000000,4.000000,4.000000,0.000000,4.000000,4.000000,4.000000,4.000000,4.000000,4.000000,1.000000,4.000000,4.000000,4.000000,2.000000,25.000000
1602278928.413843,95.000000,0.000000,3914.871826,4625.128418,4181.538574,4236.410156,3967.179443,4619.487305,3995.384521,3886.153809,4280.000000,3957.948730,4229.743652,4144.615234,4090.769287,3963.589844,243.000000,4.000000,,,,0.000000,4.000000,4.000000,0.000000,4.000000,4.000000,4.000000,4.000000,4.000000,4.000000,1.000000,4.000000,4.000000,4.000000,2.000000,25.000000
1602278928.421669,96.000000,0.000000,3903.076904,4611.282227,4180.000000,4230.769043,3972.820557,4582.051270,3952.307617,3870.256348,4262.051270,3955.384521,4220.000000,4132.307617,4078.974365,3959.487061,426.000000,4.000000,,,,0.000000,4.000000,4.000000,0.000000,4.000000,4.000000,4.000000,4.000000,4.000000,4.000000,1.000000,4.000000,4.000000,4.000000,2.000000,25.000000
1602278928.429395,97.000000,0.000000,3904.615479,4616.922852,4182.563965,4230.256348,3976.923096,4578.974121,3938.974365,3861.025635,4257.436035,3955.897461,4218.461426,4127.179688,4077.435791,3961.025635,356.000000,4.000000,,,,0.000000,4.000000,4.000000,0.000000,4.000000,4.000000,4.000000,4.000000,4.000000,4.000000,1.000000,4.000000,4.000000,4.000000,2.000000,25.000000
1602278928.437220,98.000000,0.000000,3911.281982,4621.025879,4181.025879,4239.487305,3981.538574,4607.692383,3968.718018,3873.333252,4269.743652,3958.974365,4231.282227,4136.410156,4083.076904,3963.589844,444.000000,4.000000,,,,0.000000,4.000000,4.000000,0.000000,4.000000,4.000000,4.000000,4.000000,4.000000,4.000000,1.000000,4.000000,4.000000,4.000000,2.000000,25.000000
1602278928.444946,99.000000,0.000000,3914.358887,4618.461426,4182.051270,4240.512695,3995.897461,4613.333496,3980.000000,3887.179443,4284.615234,3959.487061,4241.025879,4144.615234,4091.794922,3965.641113,243.000000,4.000000,,,,0.000000,4.000000,4.000000,0.000000,4.000000,4.000000,4.000000,4.000000,4.000000,4.000000,1.000000,4.000000,4.000000,4.000000,2.000000,25.000000
1602278928.452771,100.000000,0.000000,3913.846191,4625.641113,4181.025879,4234.871582,3991.281982,4602.051270,3966.666748,3884.102539,4288.717773,3957.948730,4235.384766,4141.538574,4099.487305,3963.589844,426.000000,4.000000,,,,0.000000,4.000000,4.000000,0.000000,4.000000,4.000000,4.000000,4.000000,4.000000,4.000000,1.000000,4.000000,4.000000,4.000000,2.000000,25.000000
1602278928.460496,101.000000,0.000000,3908.718018,4623.077148,4181.025879,4233.846191,3962.051270,4584.102539,3945.128174,3865.128174,4269.230957,3955.384521,4221.538574,4129.743652,4092.820557,3957.435791,356.000000,4.000000,,,,0.000000,4.000000,4.000000,0.000000,4.000000,4.000000,4.000000,4.000000,4.000000,4.000000,1.000000,4.000000,4.000000,4.000000,2.000000,25.000000
1602278928.468424,102.000000,0.000000,3911.281982,4611.282227,4183.077148,4230.256348,3962.051270,4572.820313,3933.846191,3853.846191,4252.820313,3955.384521,4220.000000,4126.153809,4081.538574,3955.384521,444.000000,4.000000,,,,0.000000,4.000000,4.000000,0.000000,4.000000,4.000000,4.000000,4.000000,4.000000,4.000000,1.000000,4.000000,4.000000,4.000000,2.000000,25.000000
1602278928.476251,103.000000,0.000000,3923.076904,4622.563965,4186.153809,4232.820313,3987.692383,4590.769043,3952.307617,3867.179443,4268.205078,3961.025635,4231.282227,4136.410156,4087.179443,3966.153809,243.000000,4.000000,,,,0.000000,4.000000,4.000000,0.000000,4.000000,4.000000,4.000000,4.000000,4.000000,4.000000,1.000000,4.000000,4.000000,4.000000,2.000000,25.000000
1602278928.484179,104.000000,0.000000,3925.128174,4643.589844,4182.051270,4247.692383,3987.692383,4621.025879,3974.358887,3889.230713,4293.846191,3964.615479,4238.974121,4146.153809,4101.025879,3971.794922,426.000000,4.000000,,,,0.000000,4.000000,4.000000,0.000000,4.000000,4.000000,4.000000,4.000000,4.000000,4.000000,1.000000,4.000000,4.000000,4.000000,2.000000,25.000000
1602278928.492006,105.000000,0.000000,3917.435791,4636.922852,4180.512695,4246.153809,3973.846191,4612.307617,3964.615479,3890.256348,4292.820313,3958.461426,4235.384766,4144.102539,4099.487305,3968.205078,356.000000,4.000000,,,,0.000000,4.000000,4.000000,0.000000,4.000000,4.000000,4.000000,4.000000,4.000000,4.000000,1.000000,4.000000,4.000000,4.000000,2.000000,25.000000
1602278928.499933,106.000000,0.000000,3917.948730,4624.615234,4182.051270,4235.384766,3980.512939,4594.358887,3957.435791,3882.564209,4284.102539,3956.410156,4235.384766,4144.102539,4096.410156,3971.794922,444.000000,4.000000,,,,0.000000,4.000000,4.000000,0.000000,4.000000,4.000000,4.000000,4.000000,4.000000,4.000000,1.000000,4.000000,4.000000,4.000000,2.000000,25.000000
1602278928.507760,107.000000,0.000000,3915.384521,4622.051270,4184.102539,4235.897461,3983.589844,4594.871582,3960.000000,3873.846191,4277.436035,3960.512939,4236.410156,4145.641113,4098.974121,3974.358887,243.000000,4.000000,,,,0.000000,4.000000,4.000000,0.000000,4.000000,4.000000,4.000000,4.000000,4.000000,4.000000,1.000000,4.000000,4.000000,4.000000,2.000000,25.000000
1602278928.515687,108.000000,0.000000,3909.743652,4619.487305,4185.128418,4241.025879,3973.846191,4594.358887,3953.846191,3868.718018,4272.820313,3961.025635,4229.230957,4143.077148,4098.461426,3966.666748,426.000000,4.000000,,,,0.000000,4.000000,4.000000,0.000000,4.000000,4.000000,4.000000,4.000000,4.000000,4.000000,1.000000,4.000000,4.000000,4.000000,2.000000,25.000000
1602278928.523513,109.000000,0.000000,3914.871826,4626.153809,4182.563965,4242.563965,3973.846191,4604.102539,3958.974365,3881.025635,4284.102539,3958.974365,4228.717773,4142.563965,4101.025879,3964.615479,356.000000,4.000000,,,,0.000000,4.000000,4.000000,0.000000,4.000000,4.000000,4.000000,4.000000,4.000000,4.000000,1.000000,4.000000,4.000000,4.000000,2.000000,25.000000
1602278928.531440,110.000000,0.000000,3914.871826,4623.589844,4182.051270,4240.000000,3982.051270,4615.897461,3971.281982,3889.743652,4292.820313,3958.461426,4229.743652,4138.974121,4102.051270,3967.692383,444.000000,4.000000,,,,0.000000,4.000000,4.000000,0.000000,4.000000,4.000000,4.000000,4.000000,4.000000,4.000000,1.000000,4.000000,4.000000,4.000000,2.000000,25.000000
1602278928.539267,111.000000,0.000000,3908.718018,4615.897461,4182.563965,4237.436035,3991.794922,4608.717773,3978.974365,3884.615479,4284.615234,3962.564209,4226.666504,4136.410156,4096.410156,3966.666748,243.000000,4.000000,,,,0.000000,4.000000,4.000000,0.000000,4.000000,4.000000,4.000000,4.000000,4.000000,4.000000,1.000000,4.000000,4.000000,4.000000,2.000000,25.000000
1602278928.547193,112.000000,0.000000,3922.051270,4630.256348,4183.077148,4248.717773,3994.871826,4608.717773,3987.179443,3888.718018,4287.179688,3969.230713,4238.974121,4149.743652,4106.666504,3974.871826,426.000000,4.000000,,,,0.000000,4.000000,4.000000,0.000000,4.000000,4.000000,4.000000,4.000000,4.000000,4.000000,1.000000,4.000000,4.000000,4.000000,2.000000,25.000000
1602278928.555020,113.000000,0.000000,3930.769287,4641.538574,4181.538574,4255.897461,3986.153809,4617.948730,3982.051270,3898.461426,4301.538574,3967.692383,4251.282227,4155.384766,4121.538574,3978.461426,356.000000,4.000000,,,,0.000000,4.000000,4.000000,0.000000,4.000000,4.000000,4.000000,4.000000,4.000000,4.000000,1.000000,4.000000,4.000000,4.000000,2.000000,25.000000
1602278928.562746,114.000000,0.000000,3917.948730,4625.128418,4184.615234,4240.512695,3980.000000,4608.205078,3962.564209,3892.820557,4297.436035,3960.000000,4236.410156,4143.589844,4102.563965,3968.718018,444.000000,4.000000,,,,0.000000,4.000000,4.000000,0.000000,4.000000,4.000000,4.000000,4.000000,4.000000,4.000000,1.000000,4.000000,4.000000,4.000000,2.000000,25.000000
1602278928.570573,115.000000,0.000000,3912.820557,4616.922852,4183.589844,4235.384766,3984.102539,4600.512695,3966.666748,3887.692383,4287.692383,3957.435791,4220.000000,4137.948730,4081.025635,3963.076904,243.000000,4.000000,,,,0.000000,4.000000,4.000000,0.000000,4.000000,4.000000,4.000000,4.000000,4.000000,4.000000,1.000000,4.000000,4.000000,4.000000,2.000000,25.000000
1602278928.578299,116.000000,0.000000,3917.435791,4625.641113,4184.615234,4246.153809,3981.025635,4609.230957,3971.794922,3887.179443,4288.205078,3958.974365,4220.512695,4142.051270,4088.718018,3968.205078,426.000000,4.000000,,,,0.000000,4.000000,4.000000,0.000000,4.000000,4.000000,4.000000,4.000000,4.000000,4.000000,1.000000,4.000000,4.000000,4.000000,2.000000,25.000000
1602278928.586125,117.000000,0.000000,3916.923096,4629.743652,4186.153809,4250.769043,3976.410156,4612.307617,3964.615479,3888.718018,4288.717773,3961.025635,4226.666504,4145.128418,4101.025879,3968.205078,356.000000,4.000000,,,,0.000000,4.000000,4.000000,0.000000,4.000000,4.000000,4.000000,4.000000,4.000000,4.000000,1.000000,4.000000,4.000000,4.000000,2.000000,25.000000
1602278928.593851,118.000000,0.000000,3916.923096,4633.846191,4185.641113,4249.743652,3982.564209,4609.230957,3967.179443,3888.718018,4285.641113,3961.025635,4226.666504,4147.179688,4098.974121,3967.692383,444.000000,4.000000,,,,0.000000,4.000000,4.000000,0.000000,4.000000,4.000000,4.000000,4.000000,4.000000,4.000000,1.000000,4.000000,4.000000,4.000000,2.000000,25.000000
1602278928.601677,119.000000,0.000000,3914.871826,4630.769043,4182.563965,4246.153809,3980.000000,4604.615234,3969.230713,3887.692383,4284.615234,3957.435791,4218.461426,4140.512695,4087.179443,3966.666748,243.000000,4.000000,,,,0.000000,4.000000,4.000000,0.000000,4.000000,4.000000,4.000000,4.000000,4.000000,4.000000,1.000000,4.000000,4.000000,4.000000,2.000000,25.000000
1602278928.609402,120.000000,0.000000,3910.256348,4615.384766,4183.589844,4244.102539,3973.846191,4594.871582,3960.000000,3893.333252,4283.077148,3954.358887,4213.333496,4130.769043,4075.897461,3963.076904,426.000000,4.000000,,,,0.000000,4.000000,4.000000,0.000000,4.000000,4.000000,4.000000,4.000000,4.000000,4.000000,1.000000,4.000000,4.000000,4.000000,2.000000,25.000000
1602278928.617228,121.000000,0.000000,3908.205078,4609.230957,4181.025879,4245.128418,3978.974365,4585.128418,3950.769287,3879.487061,4271.282227,3955.897461,4215.897461,4130.256348,4072.307617,3963.589844,356.000000,4.000000,,,,0.000000,4.000000,4.000000,0.000000,4.000000,4.000000,4.000000,4.000000,4.000000,4.000000,1.000000,4.000000,4.000000,4.000000,2.000000,25.000000
1602278928.624954,122.000000,0.000000,3911.794922,4616.922852,4180.000000,4247.692383,3982.564209,4589.743652,3955.897461,3857.435791,4266.153809,3956.410156,4216.410156,4133.846191,4076.923096,3969.230713,444.000000,4.000000,,,,0.000000,4.000000,4.000000,0.000000,4.000000,4.000000,4.000000,4.000000,4.000000,4.000000,1.000000,4.000000,4.000000,4.000000,2.000000,25.000000
1602278928.632779,123.000000,0.000000,3914.358887,4623.589844,4183.077148,4246.666504,3983.589844,4606.666504,3959.487061,3865.128174,4280.512695,3957.948730,4221.538574,4135.384766,4082.051270,3972.307617,243.000000,4.000000,,,,0.000000,4.000000,4.000000,0.000000,4.000000,4.000000,4.000000,4.000000,4.000000,4.000000,1.000000,4.000000,4.000000,4.000000,2.000000,25.000000
1602278928.640504,124.000000,0.000000,3909.743652,4626.153809,4183.077148,4244.615234,3995.384521,4612.307617,3958.461426,3882.051270,4296.410156,3960.000000,4230.256348,4133.846191,4088.718018,3966.666748,426.000000,4.000000,,,,0.000000,4.000000,4.000000,0.000000,4.000000,4.000000,4.000000,4.000000,4.000000,4.000000,1.000000,4.000000,4.000000,4.000000,2.000000,25.000000
1602278928.648330,125.000000,0.000000,3903.589844,4631.794922,4181.025879,4248.205078,3996.410156,4611.794922,3973.846191,3885.641113,4297.948730,3958.974365,4226.153809,4131.794922,4099.487305,3962.564209,356.000000,4.000000,,,,0.000000,4.000000,4.000000,0.000000,4.000000,4.000000,4.000000,4.000000,4.000000,4.000000,1.000000,4.000000,4.000000,4.000000,2.000000,25.000000
1602278928.656055,126.000000,0.000000,3901.538574,4629.230957,4182.051270,4245.641113,3981.538574,4612.820313,3983.589844,3891.281982,4292.307617,3958.461426,4216.410156,4129.743652,4100.000000,3962.051270,444.000000,4.000000,,,,0.000000,4.000000,4.000000,0.000000,4.000000,4.000000,4.000000,4.000000,4.000000,4.000000,1.000000,4.000000,4.000000,4.000000,2.000000,25.000000
1602278928.663880,127.000000,0.000000,3897.948730,4617.948730,4182.563965,4237.948730,3975.897461,4600.512695,3964.615479,3888.205078,4282.051270,3957.435791,4208.205078,4125.128418,4085.641113,3960.000000,243.000000,4.000000,,,,0.000000,4.000000,4.000000,0.000000,4.000000,4.000000,4.000000,4.000000,4.000000,4.000000,1.000000,4.000000,4.000000,4.000000,2.000000,25.000000
1602278928.671605,128.000000,0.000000,3898.461426,4618.974121,4181.538574,4238.461426,3979.487061,4592.820313,3954.871826,3877.435791,4276.410156,3955.384521,4206.666504,4122.051270,4075.384521,3958.974365,426.000000,4.000000,,,,0.000000,4.000000,4.000000,0.000000,4.000000,4.000000,4.000000,4.000000,4.000000,4.000000,1.000000,4.000000,4.000000,4.000000,2.000000,25.000000
1602278928.679532,0.000000,0.000000,3914.358887,4631.794922,4183.589844,4246.153809,3982.051270,4609.743652,3969.230713,3885.128174,4285.641113,3957.948730,4217.948730,4132.820313,4084.102539,3966.666748,0.000000,4.000000,,,,0.000000,4.000000,4.000000,0.000000,4.000000,4.000000,4.000000,4.000000,4.000000,4.000000,1.000000,4.000000,4.000000,4.000000,2.000000,25.000000
1602278928.687359,1.000000,0.000000,3918.974365,4625.128418,4181.025879,4246.153809,3991.281982,4601.025879,3957.435791,3885.641113,4288.205078,3957.948730,4220.000000,4136.410156,4088.718018,3967.179443,421.000000,4.000000,,,,0.000000,4.000000,4.000000,0.000000,4.000000,4.000000,4.000000,4.000000,4.000000,4.000000,1.000000,4.000000,4.000000,4.000000,2.000000,25.000000
1602278928.695286,2.000000,0.000000,3907.692383,4602.563965,4180.512695,4237.948730,3992.820557,4568.717773,3931.794922,3866.666748,4271.794922,3950.769287,4202.563965,4128.205078,4068.205078,3962.051270,385.000000,4.000000,,,,0.000000,4.000000,4.000000,0.000000,4.000000,4.000000,4.000000,4.000000,4.000000,4.000000,1.000000,4.000000,4.000000,4.000000,2.000000,25.000000
1602278928.703113,3.000000,0.000000,3908.205078,4601.538574,4184.102539,4228.717773,3977.948730,4585.641113,3951.281982,3868.205078,4265.128418,3949.743652,4200.000000,4128.717773,4058.974365,3960.512939,447.000000,4.000000,,,,0.000000,4.000000,4.000000,0.000000,4.000000,4.000000,4.000000,4.000000,4.000000,4.000000,1.000000,4.000000,4.000000,4.000000,2.000000,25.000000
1602278928.711039,4.000000,0.000000,3918.974365,4617.436035,4184.615234,4232.820313,3964.615479,4617.436035,3987.692383,3880.000000,4273.333496,3956.923096,4215.384766,4136.410156,4074.871826,3963.589844,476.000000,4.000000,,,,0.000000,4.000000,4.000000,0.000000,4.000000,4.000000,4.000000,4.000000,4.000000,4.000000,1.000000,4.000000,4.000000,4.000000,2.000000,25.000000
1602278928.718866,5.000000,0.000000,3914.358887,4623.589844,4177.948730,4243.589844,3962.564209,4606.153809,3980.000000,3877.435791,4275.897461,3958.461426,4215.384766,4132.307617,4077.435791,3963.589844,412.000000,4.000000,,,,0.000000,4.000000,4.000000,0.000000,4.000000,4.000000,4.000000,4.000000,4.000000,4.000000,1.000000,4.000000,4.000000,4.000000,2.000000,25.000000
1602278928.726792,6.000000,0.000000,3905.641113,4623.077148,4182.563965,4242.563965,3976.923096,4593.846191,3956.410156,3878.461426,4277.436035,3957.435791,4213.333496,4134.358887,4080.000000,3969.230713,473.000000,4.000000,,,,0.000000,4.000000,4.000000,0.000000,4.000000,4.000000,4.000000,4.000000,4.000000,4.000000,1.000000,4.000000,4.000000,4.000000,2.000000,25.000000
1602278928.734619,7.000000,0.000000,3909.743652,4623.589844,4185.128418,4241.538574,3994.358887,4610.256348,3968.205078,3893.846191,4289.743652,3959.487061,4227.692383,4146.153809,4104.615234,3973.846191,395.000000,4.000000,,,,0.000000,4.000000,4.000000,0.000000,4.000000,4.000000,4.000000,4.000000,4.000000,4.000000,1.000000,4.000000,4.000000,4.000000,2.000000,25.000000
1602278928.742345,8.000000,0.000000,3909.743652,4617.948730,4178.974121,4243.589844,3983.589844,4617.436035,3984.615479,3895.384521,4293.333496,3957.948730,4229.743652,4140.000000,4109.743652,3968.205078,411.000000,4.000000,,,,0.000000,4.000000,4.000000,0.000000,4.000000,4.000000,4.000000,4.000000,4.000000,4.000000,1.000000,4.000000,4.000000,4.000000,2.000000,25.000000
1602278928.750171,9.000000,0.000000,3904.615479,4614.871582,4178.461426,4241.025879,3972.307617,4608.205078,3977.435791,3883.076904,4281.538574,3955.897461,4216.410156,4129.743652,4093.333252,3964.615479,57.000000,4.000000,,,,0.000000,4.000000,4.000000,0.000000,4.000000,4.000000,4.000000,4.000000,4.000000,4.000000,1.000000,4.000000,4.000000,4.000000,2.000000,25.000000
1602278928.757898,10.000000,0.000000,3904.102539,4617.948730,4185.128418,4237.948730,3990.256348,4602.563965,3969.230713,3883.076904,4274.358887,3958.974365,4215.384766,4136.922852,4087.692383,3969.743652,444.000000,4.000000,,,,0.000000,4.000000,4.000000,0.000000,4.000000,4.000000,4.000000,4.000000,4.000000,4.000000,1.000000,4.000000,4.000000,4.000000,2.000000,25.000000
1602278928.765724,11.000000,0.000000,3905.641113,4618.974121,4184.102539,4237.948730,3994.871826,4598.974121,3960.000000,3882.051270,4273.333496,3958.974365,4218.974121,4138.974121,4086.666748,3969.230713,242.000000,4.000000,,,,0.000000,4.000000,4.000000,0.000000,4.000000,4.000000,4.000000,4.000000,4.000000,4.000000,1.000000,4.000000,4.000000,4.000000,2.000000,25.000000
1602278928.773450,12.000000,0.000000,3906.153809,4625.128418,4180.000000,4241.025879,3975.897461,4595.897461,3952.307617,3879.487061,4276.410156,3955.384521,4210.769043,4132.820313,4088.718018,3964.102539,426.000000,4.000000,,,,0.000000,4.000000,4.000000,0.000000,4.000000,4.000000,4.000000,4.000000,4.000000,4.000000,1.000000,4.000000,4.000000,4.000000,2.000000,25.000000
1602278928.781276,13.000000,0.000000,3903.589844,4624.615234,4184.102539,4240.512695,3969.743652,4588.717773,3952.820557,3878.974365,4272.820313,3953.333252,4204.102539,4127.179688,4090.769287,3961.538574,356.000000,4.000000,,,,0.000000,4.000000,4.000000,0.000000,4.000000,4.000000,4.000000,4.000000,4.000000,4.000000,1.000000,4.000000,4.000000,4.000000,2.000000,25.000000
1602278928.789002,14.000000,0.000000,3901.025635,4613.333496,4184.102539,4238.974121,3975.897461,4585.641113,3955.897461,3875.384521,4265.641113,3954.358887,4209.230957,4121.025879,4076.410156,3958.974365,444.000000,4.000000,,,,0.000000,4.000000,4.000000,0.000000,4.000000,4.000000,4.000000,4.000000,4.000000,4.000000,1.000000,4.000000,4.000000,4.000000,2.000000,25.000000
1602278928.796827,15.000000,0.000000,3906.153809,4612.307617,4183.077148,4242.051270,3982.564209,4598.461426,3964.102539,3882.051270,4276.410156,3958.974365,4217.948730,4125.128418,4070.256348,3964.615479,242.000000,4.000000,,,,0.000000,4.000000,4.000000,0.000000,4.000000,4.000000,4.000000,4.000000,4.000000,4.000000,1.000000,4.000000,4.000000,4.000000,2.000000,25.000000
1602278928.804553,16.000000,0.000000,3912.820557,4616.410156,4182.563965,4249.743652,3980.000000,4604.102539,3967.692383,3890.769287,4287.692383,3959.487061,4215.384766,4135.897461,4083.076904,3970.769287,0.000000,4.000000,,,,0.000000,4.000000,4.000000,0.000000,4.000000,4.000000,4.000000,4.000000,4.000000,4.000000,1.000000,4.000000,4.000000,4.000000,2.000000,25.000000
1602278928.812379,17.000000,0.000000,3914.358887,4614.358887,4183.077148,4250.256348,3967.692383,4599.487305,3958.974365,3885.128174,4280.000000,3955.897461,4208.717773,4140.512695,4083.589844,3971.281982,0.000000,4.000000,,,,0.000000,4.000000,4.000000,0.000000,4.000000,4.000000,4.000000,4.000000,4.000000,4.000000,1.000000,4.000000,4.000000,4.000000,2.000000,25.000000
1602278928.820104,18.000000,0.000000,3912.820557,4615.897461,4181.025879,4244.102539,3970.256348,4593.333496,3963.589844,3882.051270,4275.897461,3955.384521,4208.717773,4137.948730,4073.846191,3967.692383,0.000000,4.000000,,,,0.000000,4.000000,4.000000,0.000000,4.000000,4.000000,4.000000,4.000000,4.000000,4.000000,1.000000,4.000000,4.000000,4.000000,2.000000,25.000000
1602278928.827930,19.000000,0.000000,3912.820557,4624.102539,4181.025879,4242.051270,3982.051270,4593.333496,3986.666748,3886.153809,4281.538574,3959.487061,4212.820313,4138.461426,4080.512939,3968.205078,0.000000,4.000000,,,,0.000000,4.000000,4.000000,0.000000,4.000000,4.000000,4.000000,4.000000,4.000000,4.000000,1.000000,4.000000,4.000000,4.000000,2.000000,25.000000
1602278928.835655,20.000000,0.000000,3912.307617,4629.230957,4181.025879,4245.128418,3990.256348,4602.051270,3984.615479,3887.179443,4284.615234,3961.025635,4218.461426,4139.487305,4089.230713,3966.153809,0.000000,4.000000,,,,0.000000,4.000000,4.000000,0.000000,4.000000,4.000000,4.000000,4.000000,4.000000,4.000000,1.000000,4.000000,4.000000,4.000000,2.000000,25.000000
1602278928.843480,21.000000,0.000000,3906.666748,4624.102539,4182.563965,4246.153809,3990.256348,4595.897461,3954.358887,3889.230713,4280.512695,3957.435791,4213.846191,4135.897461,4080.000000,3964.615479,0.000000,4.000000,,,,0.000000,4.000000,4.000000,0.000000,4.000000,4.000000,4.000000,4.000000,4.000000,4.000000,1.000000,4.000000,4.000000,4.000000,2.000000,25.000000
1602278928.851205,22.000000,0.000000,3907.692383,4622.051270,4182.051270,4242.563965,3978.461426,4593.333496,3957.435791,3895.384521,4284.102539,3956.410156,4211.282227,4137.436035,4079.487061,3968.718018,0.000000,4.000000,,,,0.000000,4.000000,4.000000,0.000000,4.000000,4.000000,4.000000,4.000000,4.000000,4.000000,1.000000,4.000000,4.000000,4.000000,2.000000,25.000000
1602278928.859132,23.000000,0.000000,3917.948730,4638.461426,4184.615234,4249.230957,3971.794922,4613.846191,3983.589844,3900.000000,4300.000000,3960.000000,4220.512695,4147.179688,4096.410156,3974.358887,0.000000,4.000000,,,,0.000000,4.000000,4.000000,0.000000,4.000000,4.000000,4.000000,4.000000,4.000000,4.000000,1.000000,4.000000,4.000000,4.000000,2.000000,25.000000
1602278928.866959,24.000000,0.000000,3913.846191,4648.717773,4183.077148,4253.846191,3979.487061,4614.358887,3977.435791,3897.435791,4298.974121,3960.512939,4221.025879,4145.641113,4093.333252,3971.794922,0.000000,4.000000,,,,0.000000,4.000000,4.000000,0.000000,4.000000,4.000000,4.000000,4.000000,4.000000,4.000000,1.000000,4.000000,4.000000,4.000000,2.000000,25.000000
1602278928.874886,25.000000,0.000000,3906.666748,4622.051270,4180.512695,4240.512695,3988.205078,4595.384766,3958.461426,3885.641113,4271.794922,3960.512939,4212.820313,4135.897461,4079.487061,3970.769287,0.000000,4.000000,,,,0.000000,4.000000,4.000000,0.000000,4.000000,4.000000,4.000000,4.000000,4.000000,4.000000,1.000000,4.000000,4.000000,4.000000,2.000000,25.000000
1602278928.882713,26.000000,0.000000,3916.410156,4604.102539,4179.487305,4235.384766,3990.769287,4603.589844,3964.102539,3883.589844,4265.641113,3962.051270,4214.871582,4140.512695,4080.000000,3975.897461,0.000000,4.000000,,,,0.000000,4.000000,4.000000,0.000000,4.000000,4.000000,4.000000,4.000000,4.000000,4.000000,1.000000,4.000000,4.000000,4.000000,2.000000,25.000000
1602278928.890639,27.000000,0.000000,3919.487061,4630.769043,4181.538574,4248.717773,3988.205078,4616.922852,3973.333252,3893.333252,4288.205078,3960.512939,4217.948730,4147.179688,4089.743652,3975.384521,0.000000,4.000000,,,,0.000000,4.000000,4.000000,0.000000,4.000000,4.000000,4.000000,4.000000,4.000000,4.000000,1.000000,4.000000,4.000000,4.000000,2.000000,25.000000
1602278928.898466,28.000000,0.000000,3914.871826,4645.128418,4181.538574,4255.897461,3970.769287,4602.563965,3967.692383,3893.333252,4292.820313,3958.461426,4212.820313,4129.743652,4094.871826,3969.743652,0.000000,4.000000,,,,0.000000,4.000000,4.000000,0.000000,4.000000,4.000000,4.000000,4.000000,4.000000,4.000000,1.000000,4.000000,4.000000,4.000000,2.000000,25.000000
1602278928.906392,29.000000,0.000000,3918.974365,4631.282227,4180.000000,4248.205078,3961.025635,4593.846191,3962.564209,3888.205078,4287.179688,3959.487061,4209.230957,4100.512695,4089.230713,3968.718018,0.000000,4.000000,,,,0.000000,4.000000,4.000000,0.000000,4.000000,4.000000,4.000000,4.000000,4.000000,4.000000,1.000000,4.000000,4.000000,4.000000,2.000000,25.000000
1602278928.914219,30.000000,0.000000,3920.000000,4623.589844,4182.563965,4244.102539,3979.487061,4590.769043,3961.538574,3889.230713,4291.794922,3958.461426,4209.743652,4086.666748,4082.051270,3970.769287,0.000000,4.000000,,,,0.000000,4.000000,4.000000,0.000000,4.000000,4.000000,4.000000,4.000000,4.000000,4.000000,1.000000,4.000000,4.000000,4.000000,2.000000,25.000000
1602278928.922145,31.000000,0.000000,3922.564209,4632.820313,4183.077148,4254.358887,3986.153809,4591.794922,3976.923096,3892.307617,4290.769043,3958.461426,4223.077148,4097.436035,4094.358887,3978.461426,0.000000,4.000000,,,,0.000000,4.000000,4.000000,0.000000,4.000000,4.000000,4.000000,4.000000,4.000000,4.000000,1.000000,4.000000,4.000000,4.000000,2.000000,25.000000
1602278928.929972,32.000000,0.000000,3932.820557,4631.282227,4185.128418,4256.410156,3966.153809,4604.102539,3986.153809,3890.769287,4285.128418,3963.076904,4231.794922,4108.717773,4105.641113,3988.718018,0.000000,4.000000,,,,0.000000,4.000000,4.000000,0.000000,4.000000,4.000000,4.000000,4.000000,4.000000,4.000000,1.000000,4.000000,4.000000,4.000000,2.000000,25.000000
1602278928.937698,33.000000,0.000000,3925.641113,4621.538574,4183.589844,4244.102539,3961.025635,4600.512695,3961.025635,3881.025635,4283.077148,3963.076904,4217.436035,4101.538574,4094.871826,3984.102539,0.000000,4.000000,,,,0.000000,4.000000,4.000000,0.000000,4.000000,4.000000,4.000000,4.000000,4.000000,4.000000,1.000000,4.000000,4.000000,4.000000,2.000000,25.000000
1602278928.945524,34.000000,0.000000,3913.846191,4627.179688,4183.077148,4245.128418,3975.384521,4593.333496,3950.769287,3877.948730,4284.615234,3961.538574,4212.820313,4095.384521,4086.666748,3975.897461,0.000000,4.000000,,,,0.000000,4.000000,4.000000,0.000000,4.000000,4.000000,4.000000,4.000000,4.000000,4.000000,1.000000,4.000000,4.000000,4.000000,2.000000,25.000000
1602278928.953250,35.000000,0.000000,3917.948730,4634.358887,4182.051270,4258.974121,3984.615479,4601.025879,3968.718018,3889.230713,4287.179688,3963.076904,4224.615234,4098.461426,4091.281982,3973.333252,0.000000,4.000000,,,,0.000000,4.000000,4.000000,0.000000,4.000000,4.000000,4.000000,4.000000,4.000000,4.000000,1.000000,4.000000,4.000000,4.000000,2.000000,25.000000
1602278928.961076,36.000000,0.000000,3924.615479,4626.153809,4184.615234,4256.410156,3980.512939,4600.512695,3961.538574,3890.256348,4284.615234,3960.000000,4226.153809,4099.487305,4091.794922,3975.384521,0.000000,4.000000,,,,0.000000,4.000000,4.000000,0.000000,4.000000,4.000000,4.000000,4.000000,4.000000,4.000000,1.000000,4.000000,4.000000,4.000000,2.000000,25.000000
1602278928.968801,37.000000,0.000000,3921.025635,4622.051270,4182.563965,4250.769043,3977.948730,4592.307617,3944.102539,3882.564209,4278.461426,3958.461426,4218.461426,4095.897461,4089.230713,3971.794922,0.000000,4.000000,,,,0.000000,4.000000,4.000000,0.000000,4.000000,4.000000,4.000000,4.000000,4.000000,4.000000,1.000000,4.000000,4.000000,4.000000,2.000000,25.000000
1602278928.976627,38.000000,0.000000,3914.358887,4636.922852,4180.512695,4255.897461,3982.564209,4590.256348,3951.794922,3888.718018,4280.512695,3960.512939,4215.897461,4091.794922,4088.718018,3969.230713,0.000000,4.000000,,,,0.000000,4.000000,4.000000,0.000000,4.000000,4.000000,4.000000,4.000000,4.000000,4.000000,1.000000,4.000000,4.000000,4.000000,2.000000,25.000000
1602278928.984352,39.000000,0.000000,3916.923096,4652.820313,4181.538574,4260.512695,3984.102539,4601.025879,3968.205078,3902.051270,4293.846191,3962.051270,4224.615234,4095.897461,4101.538574,3975.897461,0.000000,4.000000,,,,0.000000,4.000000,4.000000,0.000000,4.000000,4.000000,4.000000,4.000000,4.000000,4.000000,1.000000,4.000000,4.000000,4.000000,2.000000,25.000000
1602278928.992178,40.000000,0.000000,3922.051270,4642.051270,4182.051270,4255.897461,3981.025635,4614.871582,3972.307617,3904.102539,4300.512695,3964.615479,4231.282227,4102.563965,4113.846191,3980.000000,0.000000,4.000000,,,,0.000000,4.000000,4.000000,0.000000,4.000000,4.000000,4.000000,4.000000,4.000000,4.000000,1.000000,4.000000,4.000000,4.000000,2.000000,25.000000
1602278928.999903,41.000000,0.000000,3918.461426,4616.922852,4178.974121,4246.666504,3982.564209,4611.794922,3961.538574,3893.846191,4285.128418,3965.128174,4220.512695,4098.461426,4097.436035,3972.820557,0.000000,4.000000,,,,0.000000,4.000000,4.000000,0.000000,4.000000,4.000000,4.000000,4.000000,4.000000,4.000000,1.000000,4.000000,4.000000,4.000000,2.000000,25.000000
1602278929.007728,42.000000,0.000000,3916.410156,4613.846191,4181.025879,4244.615234,3978.461426,4595.897461,3950.769287,3884.102539,4270.769043,3960.512939,4208.717773,4092.820557,4077.948730,3968.718018,0.000000,4.000000,,,,0.000000,4.000000,4.000000,0.000000,4.000000,4.000000,4.000000,4.000000,4.000000,4.000000,1.000000,4.000000,4.000000,4.000000,2.000000,25.000000
1602278929.015453,43.000000,0.000000,3924.102539,4634.358887,4185.128418,4248.717773,3970.256348,4598.974121,3963.076904,3891.794922,4282.563965,3956.923096,4211.282227,4096.410156,4087.692383,3974.871826,0.000000,4.000000,,,,0.000000,4.000000,4.000000,0.000000,4.000000,4.000000,4.000000,4.000000,4.000000,4.000000,1.000000,4.000000,4.000000,4.000000,2.000000,25.000000
1602278929.023380,44.000000,0.000000,3923.076904,4631.794922,4185.128418,4249.743652,3976.410156,4601.538574,3970.256348,3901.538574,4297.948730,3960.000000,4212.820313,4100.512695,4094.871826,3972.820557,0.000000,4.000000,,,,0.000000,4.000000,4.000000,0.000000,4.000000,4.000000,4.000000,4.000000,4.000000,4.000000,1.000000,4.000000,4.000000,4.000000,2.000000,25.000000
1602278929.031208,45.000000,0.000000,3914.871826,4615.897461,4181.538574,4245.641113,3977.435791,4589.743652,3963.589844,3897.435791,4288.717773,3958.461426,4208.205078,4096.410156,4082.564209,3968.205078,0.000000,4.000000,,,,0.000000,4.000000,4.000000,0.000000,4.000000,4.000000,4.000000,4.000000,4.000000,4.000000,1.000000,4.000000,4.000000,4.000000,2.000000,25.000000
1602278929.039035,46.000000,0.000000,3914.871826,4624.102539,4177.948730,4245.641113,3962.051270,4595.897461,3966.153809,3888.718018,4275.384766,3956.923096,4208.717773,4090.769287,4074.871826,3968.718018,0.000000,4.000000,,,,0.000000,4.000000,4.000000,0.000000,4.000000,4.000000,4.000000,4.000000,4.000000,4.000000,1.000000,4.000000,4.000000,4.000000,2.000000,25.000000
1602278929.046760,47.000000,0.000000,3915.897461,4626.153809,4181.025879,4245.128418,3961.025635,4595.384766,3954.358887,3881.538574,4270.256348,3960.000000,4204.102539,4084.102539,4068.718018,3967.179443,0.000000,4.000000,,,,0.000000,4.000000,4.000000,0.000000,4.000000,4.000000,4.000000,4.000000,4.000000,4.000000,1.000000,4.000000,4.000000,4.000000,2.000000,25.000000
1602278929.054687,48.000000,0.000000,3913.333252,4613.846191,4182.563965,4249.743652,3977.435791,4587.179688,3942.051270,3880.000000,4269.230957,3960.512939,4198.974121,4081.025635,4062.564209,3964.102539,0.000000,4.000000,,,,0.000000,4.000000,4.000000,0.000000,4.000000,4.000000,4.000000,4.000000,4.000000,4.000000,1.000000,4.000000,4.000000,4.000000,2.000000,25.000000
1602278929.062514,49.000000,0.000000,3920.000000,4626.153809,4184.102539,4255.897461,3984.102539,4601.538574,3962.051270,3887.179443,4275.384766,3958.974365,4205.641113,4088.205078,4076.923096,3969.230713,0.000000,4.000000,,,,0.000000,4.000000,4.000000,0.000000,4.000000,4.000000,4.000000,4.000000,4.000000,4.000000,1.000000,4.000000,4.000000,4.000000,2.000000,25.000000
1602278929.070440,50.000000,0.000000,3924.102539,4639.487305,4181.025879,4251.794922,3973.333252,4610.256348,3981.025635,3892.820557,4278.461426,3958.974365,4213.333496,4094.358887,4090.769287,3969.743652,0.000000,4.000000,,,,0.000000,4.000000,4.000000,0.000000,4.000000,4.000000,4.000000,4.000000,4.000000,4.000000,1.000000,4.000000,4.000000,4.000000,2.000000,25.000000
1602278929.078267,51.000000,0.000000,3914.358887,4622.563965,4179.487305,4246.666504,3964.102539,4595.897461,3964.615479,3888.718018,4274.871582,3957.948730,4213.333496,4089.743652,4079.487061,3964.102539,0.000000,4.000000,,,,0.000000,4.000000,4.000000,0.000000,4.000000,4.000000,4.000000,4.000000,4.000000,4.000000,1.000000,4.000000,4.000000,4.000000,2.000000,25.000000
1602278929.086193,52.000000,0.000000,3911.794922,4612.307617,4179.487305,4249.230957,3972.820557,4589.743652,3953.333252,3890.256348,4281.025879,3955.384521,4211.794922,4084.615479,4075.384521,3963.589844,0.000000,4.000000,,,,0.000000,4.000000,4.000000,0.000000,4.000000,4.000000,4.000000,4.000000,4.000000,4.000000,1.000000,4.000000,4.000000,4.000000,2.000000,25.000000
1602278929.094020,53.000000,0.000000,3918.974365,4626.666504,4182.051270,4245.128418,3982.564209,4594.358887,3957.948730,3891.794922,4284.615234,3956.923096,4217.436035,4089.743652,4088.205078,3969.230713,0.000000,4.000000,,,,0.000000,4.000000,4.000000,0.000000,4.000000,4.000000,4.000000,4.000000,4.000000,4.000000,1.000000,4.000000,4.000000,4.000000,2.000000,25.000000
1602278929.101846,54.000000,0.000000,3916.923096,4634.358887,4180.512695,4233.333496,3974.358887,4592.820313,3954.871826,3882.051270,4273.846191,3959.487061,4225.641113,4093.333252,4089.743652,3967.692383,0.000000,4.000000,,,,0.000000,4.000000,4.000000,0.000000,4.000000,4.000000,4.000000,4.000000,4.000000,4.000000,1.000000,4.000000,4.000000,4.000000,2.000000,25.000000
1602278929.109672,55.000000,0.000000,3911.794922,4626.153809,4183.589844,4229.230957,3957.948730,4592.307617,3952.307617,3873.846191,4267.692383,3956.410156,4224.102539,4087.692383,4084.615479,3964.615479,0.000000,4.000000,,,,0.000000,4.000000,4.000000,0.000000,4.000000,4.000000,4.000000,4.000000,4.000000,4.000000,1.000000,4.000000,4.000000,4.000000,2.000000,25.000000
1602278929.117398,56.000000,0.000000,3914.871826,4624.102539,4183.077148,4231.282227,3960.512939,4598.461426,3961.538574,3875.384521,4276.922852,3954.871826,4219.487305,4085.128174,4090.256348,3965.128174,0.000000,4.000000,,,,0.000000,4.000000,4.000000,0.000000,4.000000,4.000000,4.000000,4.000000,4.000000,4.000000,1.000000,4.000000,4.000000,4.000000,2.000000,25.000000
1602278929.125224,57.000000,0.000000,3921.538574,4631.282227,4180.000000,4233.846191,3983.589844,4604.102539,3971.794922,3881.538574,4284.615234,3962.051270,4224.615234,4092.307617,4089.743652,3970.769287,0.000000,4.000000,,,,0.000000,4.000000,4.000000,0.000000,4.000000,4.000000,4.000000,4.000000,4.000000,4.000000,1.000000,4.000000,4.000000,4.000000,2.000000,25.000000
1602278929.132950,58.000000,0.000000,3923.076904,4621.025879,4182.563965,4235.897461,3987.179443,4596.922852,3972.307617,3882.051270,4278.461426,3965.641113,4228.717773,4092.820557,4073.333252,3972.820557,0.000000,4.000000,,,,0.000000,4.000000,4.000000,0.000000,4.000000,4.000000,4.000000,4.000000,4.000000,4.000000,1.000000,4.000000,4.000000,4.000000,2.000000,25.000000
1602278929.140776,59.000000,0.000000,3918.461426,4606.153809,4186.153809,4233.846191,3969.230713,4590.769043,3970.256348,3887.179443,4276.410156,3960.000000,4228.717773,4087.692383,4076.923096,3967.179443,0.000000,4.000000,,,,0.000000,4.000000,4.000000,0.000000,4.000000,4.000000,4.000000,4.000000,4.000000,4.000000,1.000000,4.000000,4.000000,4.000000,2.000000,25.000000
1602278929.148502,60.000000,0.000000,3916.923096,4616.410156,4182.051270,4231.794922,3974.871826,4604.615234,3976.923096,3898.461426,4291.794922,3960.512939,4236.410156,4095.384521,4104.615234,3967.692383,0.000000,4.000000,,,,0.000000,4.000000,4.000000,0.000000,4.000000,4.000000,4.000000,4.000000,4.000000,4.000000,1.000000,4.000000,4.000000,4.000000,2.000000,25.000000
1602278929.156328,61.000000,0.000000,3919.487061,4624.615234,4179.487305,4231.282227,3987.692383,4605.641113,3966.153809,3898.461426,4297.436035,3964.615479,4233.846191,4101.025879,4098.461426,3972.820557,0.000000,4.000000,,,,0.000000,4.000000,4.000000,0.000000,4.000000,4.000000,4.000000,4.000000,4.000000,4.000000,1.000000,4.000000,4.000000,4.000000,2.000000,25.000000
1602278929.164053,62.000000,0.000000,3920.000000,4616.410156,4183.589844,4232.307617,3972.307617,4583.589844,3947.692383,3884.102539,4278.974121,3962.564209,4221.025879,4093.333252,4072.820557,3973.846191,0.000000,4.000000,,,,0.000000,4.000000,4.000000,0.000000,4.000000,4.000000,4.000000,4.000000,4.000000,4.000000,1.000000,4.000000,4.000000,4.000000,2.000000,25.000000
1602278929.171879,63.000000,0.000000,3917.435791,4624.615234,4182.563965,4234.871582,3967.179443,4583.077148,3955.897461,3876.410156,4270.256348,3958.974365,4223.589844,4090.769287,4086.153809,3971.794922,0.000000,4.000000,,,,0.000000,4.000000,4.000000,0.000000,4.000000,4.000000,4.000000,4.000000,4.000000,4.000000,1.000000,4.000000,4.000000,4.000000,2.000000,25.000000
1602278929.179604,64.000000,0.000000,3916.923096,4644.102539,4183.589844,4242.051270,3991.794922,4599.487305,3969.230713,3876.923096,4274.358887,3960.512939,4228.717773,4096.922852,4102.563965,3974.871826,0.000000,4.000000,,,,0.000000,4.000000,4.000000,0.000000,4.000000,4.000000,4.000000,4.000000,4.000000,4.000000,1.000000,4.000000,4.000000,4.000000,2.000000,25.000000
1602278929.187429,65.000000,0.000000,3918.461426,4637.436035,4183.589844,4245.128418,3996.923096,4596.410156,3959.487061,3873.333252,4269.743652,3963.076904,4223.589844,4092.820557,4085.128174,3971.794922,421.000000,4.000000,,,,0.000000,4.000000,4.000000,0.000000,4.000000,4.000000,4.000000,4.000000,4.000000,4.000000,1.000000,4.000000,4.000000,4.000000,2.000000,25.000000
1602278929.195155,66.000000,0.000000,3917.435791,4626.153809,4182.563965,4238.461426,3972.820557,4588.205078,3954.871826,3877.948730,4271.794922,3961.538574,4217.436035,4086.153809,4073.846191,3964.102539,385.000000,4.000000,,,,0.000000,4.000000,4.000000,0.000000,4.000000,4.000000,4.000000,4.000000,4.000000,4.000000,1.000000,4.000000,4.000000,4.000000,2.000000,25.000000
1602278929.203082,67.000000,0.000000,3919.487061,4637.436035,4182.563965,4238.974121,3968.718018,4603.077148,3975.897461,3890.256348,4284.615234,3960.512939,4220.000000,4093.333252,4086.666748,3965.641113,447.000000,4.000000,,,,0.000000,4.000000,4.000000,0.000000,4.000000,4.000000,4.000000,4.000000,4.000000,4.000000,1.000000,4.000000,4.000000,4.000000,2.000000,25.000000
1602278929.210909,68.000000,0.000000,3927.179443,4644.102539,4184.615234,4247.692383,3989.230713,4615.897461,3982.564209,3889.230713,4286.153809,3962.564209,4222.563965,4100.000000,4095.897461,3972.820557,476.000000,4.000000,,,,0.000000,4.000000,4.000000,0.000000,4.000000,4.000000,4.000000,4.000000,4.000000,4.000000,1.000000,4.000000,4.000000,4.000000,2.000000,25.000000
1602278929.218836,69.000000,0.000000,3930.769287,4633.333496,4180.000000,4246.153809,3988.205078,4601.538574,3967.179443,3883.589844,4282.051270,3962.564209,4221.538574,4096.922852,4097.436035,3969.743652,412.000000,4.000000,,,,0.000000,4.000000,4.000000,0.000000,4.000000,4.000000,4.000000,4.000000,4.000000,4.000000,1.000000,4.000000,4.000000,4.000000,2.000000,25.000000
1602278929.226663,70.000000,0.000000,3931.794922,4635.897461,4179.487305,4246.666504,3970.256348,4591.794922,3966.153809,3886.153809,4288.205078,3964.102539,4228.717773,4104.102539,4106.666504,3969.743652,471.000000,4.000000,,,,0.000000,4.000000,4.000000,0.000000,4.000000,4.000000,4.000000,4.000000,4.000000,4.000000,1.000000,4.000000,4.000000,4.000000,2.000000,25.000000
1602278929.234590,71.000000,0.000000,3932.820557,4642.051270,4183.077148,4251.794922,3979.487061,4589.743652,3964.615479,3882.564209,4289.230957,3969.743652,4235.384766,4112.820313,4110.256348,3974.871826,395.000000,4.000000,,,,0.000000,4.000000,4.000000,0.000000,4.000000,4.000000,4.000000,4.000000,4.000000,4.000000,1.000000,4.000000,4.000000,4.000000,2.000000,25.000000
1602278929.242417,72.000000,0.000000,3931.794922,4623.589844,4184.102539,4243.589844,3993.846191,4582.563965,3952.307617,3876.410156,4276.410156,3968.205078,4225.128418,4108.717773,4094.358887,3973.846191,411.000000,4.000000,,,,0.000000,4.000000,4.000000,0.000000,4.000000,4.000000,4.000000,4.000000,4.000000,4.000000,1.000000,4.000000,4.000000,4.000000,2.000000,25.000000
1602278929.250344,73.000000,0.000000,3929.743652,4618.461426,4182.051270,4234.358887,3974.871826,4591.282227,3960.512939,3885.128174,4278.974121,3963.076904,4215.897461,4105.128418,4081.025635,3972.307617,57.000000,4.000000,,,,0.000000,4.000000,4.000000,0.000000,4.000000,4.000000,4.000000,4.000000,4.000000,4.000000,1.000000,4.000000,4.000000,4.000000,2.000000,25.000000
1602278929.258170,74.000000,0.000000,3926.666748,4636.922852,4184.102539,4250.256348,3964.102539,4609.743652,3978.461426,3899.487061,4294.871582,3963.076904,4221.538574,4108.205078,4086.666748,3976.410156,444.000000,4.000000,,,,0.000000,4.000000,4.000000,0.000000,4.000000,4.000000,4.000000,4.000000,4.000000,4.000000,1.000000,4.000000,4.000000,4.000000,2.000000,25.000000
1602278929.266096,75.000000,0.000000,3921.538574,4625.128418,4182.051270,4252.307617,3984.615479,4602.051270,3969.230713,3899.487061,4293.333496,3961.538574,4221.538574,4103.589844,4086.666748,3969.743652,241.000000,4.000000,,,,0.000000,4.000000,4.000000,0.000000,4.000000,4.000000,4.000000,4.000000,4.000000,4.000000,1.000000,4.000000,4.000000,4.000000,2.000000,25.000000
1602278929.273923,76.000000,0.000000,3917.948730,4606.666504,4181.538574,4232.820313,3992.307617,4592.307617,3960.000000,3893.333252,4283.589844,3957.948730,4211.282227,4095.384521,4077.948730,3960.512939,426.000000,4.000000,,,,0.000000,4.000000,4.000000,0.000000,4.000000,4.000000,4.000000,4.000000,4.000000,4.000000,1.000000,4.000000,4.000000,4.000000,2.000000,25.000000
1602278929.281849,77.000000,0.000000,3924.102539,4621.538574,4187.692383,4237.948730,3988.205078,4605.641113,3967.179443,3894.358887,4292.307617,3957.948730,4210.769043,4098.974121,4086.666748,3970.769287,356.000000,4.000000,,,,0.000000,4.000000,4.000000,0.000000,4.000000,4.000000,4.000000,4.000000,4.000000,4.000000,1.000000,4.000000,4.000000,4.000000,2.000000,25.000000
1602278929.289675,78.000000,0.000000,3926.153809,4630.769043,4187.179688,4253.846191,3993.333252,4605.128418,3956.923096,3898.461426,4298.461426,3961.538574,4214.358887,4105.128418,4091.281982,3976.923096,444.000000,4.000000,,,,0.000000,4.000000,4.000000,0.000000,4.000000,4.000000,4.000000,4.000000,4.000000,4.000000,1.000000,4.000000,4.000000,4.000000,2.000000,25.000000
1602278929.297401,79.000000,0.000000,3918.974365,4628.205078,4181.025879,4247.179688,3990.256348,4589.743652,3942.564209,3885.128174,4278.461426,3961.538574,4209.743652,4104.615234,4076.923096,3971.281982,241.000000,4.000000,,,,0.000000,4.000000,4.000000,0.000000,4.000000,4.000000,4.000000,4.000000,4.000000,4.000000,1.000000,4.000000,4.000000,4.000000,2.000000,25.000000
1602278929.305228,80.000000,0.000000,3921.538574,4646.153809,4178.461426,4246.666504,3984.102539,4598.461426,3964.615479,3872.307617,4270.256348,3958.974365,4210.256348,4101.025879,4078.974365,3971.281982,426.000000,4.000000,,,,0.000000,4.000000,4.000000,0.000000,4.000000,4.000000,4.000000,4.000000,4.000000,4.000000,1.000000,4.000000,4.000000,4.000000,2.000000,25.000000
1602278929.312954,81.000000,0.000000,3936.923096,4651.794922,4183.077148,4268.717773,3988.205078,4615.384766,3991.794922,3881.538574,4287.179688,3958.461426,4221.025879,4101.538574,4094.871826,3974.358887,356.000000,4.000000,,,,0.000000,4.000000,4.000000,0.000000,4.000000,4.000000,4.000000,4.000000,4.000000,4.000000,1.000000,4.000000,4.000000,4.000000,2.000000,25.000000
1602278929.320779,82.000000,0.000000,3929.743652,4630.256348,4182.051270,4268.205078,3987.179443,4600.000000,3969.230713,3874.358887,4277.948730,3959.487061,4215.897461,4094.871826,4091.794922,3962.564209,444.000000,4.000000,,,,0.000000,4.000000,4.000000,0.000000,4.000000,4.000000,4.000000,4.000000,4.000000,4.000000,1.000000,4.000000,4.000000,4.000000,2.000000,25.000000
1602278929.328505,83.000000,0.000000,3915.384521,4628.717773,4181.538574,4248.205078,3986.153809,4581.538574,3945.641113,3862.564209,4259.487305,3956.923096,4200.000000,4087.692383,4082.051270,3958.461426,241.000000,4.000000,,,,0.000000,4.000000,4.000000,0.000000,4.000000,4.000000,4.000000,4.000000,4.000000,4.000000,1.000000,4.000000,4.000000,4.000000,2.000000,25.000000
1602278929.336331,84.000000,0.000000,3928.718018,4644.102539,4182.051270,4253.333496,3996.410156,4597.948730,3974.358887,3889.743652,4285.641113,3959.487061,4212.307617,4100.512695,4092.820557,3972.820557,426.000000,4.000000,,,,0.000000,4.000000,4.000000,0.000000,4.000000,4.000000,4.000000,4.000000,4.000000,4.000000,1.000000,4.000000,4.000000,4.000000,2.000000,25.000000
1602278929.344056,85.000000,0.000000,3938.461426,4642.051270,4184.102539,4260.000000,3994.358887,4613.846191,3989.743652,3913.846191,4310.256348,3965.641113,4231.794922,4113.333496,4100.512695,3980.512939,356.000000,4.000000,,,,0.000000,4.000000,4.000000,0.000000,4.000000,4.000000,4.000000,4.000000,4.000000,4.000000,1.000000,4.000000,4.000000,4.000000,2.000000,25.000000
1602278929.351882,86.000000,0.000000,3921.025635,4639.487305,4183.077148,4248.205078,3980.000000,4610.256348,3967.692383,3903.076904,4297.436035,3966.666748,4226.153809,4106.153809,4095.897461,3971.794922,444.000000,4.000000,,,,0.000000,4.000000,4.000000,0.000000,4.000000,4.000000,4.000000,4.000000,4.000000,4.000000,1.000000,4.000000,4.000000,4.000000,2.000000,25.000000
1602278929.359608,87.000000,0.000000,3913.846191,4644.102539,4181.538574,4246.153809,3976.923096,4605.128418,3966.666748,3891.281982,4290.256348,3964.615479,4218.461426,4101.025879,4090.256348,3965.128174,241.000000,4.000000,,,,0.000000,4.000000,4.000000,0.000000,4.000000,4.000000,4.000000,4.000000,4.000000,4.000000,1.000000,4.000000,4.000000,4.000000,2.000000,25.000000
1602278929.367433,88.000000,0.000000,3915.897461,4631.282227,4178.461426,4251.794922,3983.589844,4598.461426,3966.666748,3883.589844,4289.743652,3960.512939,4216.922852,4100.000000,4073.333252,3962.564209,426.000000,4.000000,,,,0.000000,4.000000,4.000000,0.000000,4.000000,4.000000,4.000000,4.000000,4.000000,4.000000,1.000000,4.000000,4.000000,4.000000,2.000000,25.000000
1602278929.375158,89.000000,0.000000,3910.256348,4611.282227,4182.051270,4242.563965,3988.205078,4591.282227,3949.743652,3873.333252,4277.436035,3960.000000,4209.743652,4094.871826,4063.076904,3959.487061,356.000000,4.000000,,,,0.000000,4.000000,4.000000,0.000000,4.000000,4.000000,4.000000,4.000000,4.000000,4.000000,1.000000,4.000000,4.000000,4.000000,2.000000,25.000000
1602278929.382984,90.000000,0.000000,3915.384521,4608.205078,4185.128418,4237.948730,3986.666748,4602.051270,3969.743652,3884.102539,4280.512695,3961.538574,4211.282227,4096.922852,4080.000000,3963.589844,444.000000,4.000000,,,,0.000000,4.000000,4.000000,0.000000,4.000000,4.000000,4.000000,4.000000,4.000000,4.000000,1.000000,4.000000,4.000000,4.000000,2.000000,25.000000
1602278929.390709,91.000000,0.000000,3926.666748,4613.333496,4185.128418,4247.179688,3991.281982,4617.948730,3991.794922,3891.281982,4293.333496,3960.512939,4222.563965,4108.717773,4092.820557,3971.281982,241.000000,4.000000,,,,0.000000,4.000000,4.000000,0.000000,4.000000,4.000000,4.000000,4.000000,4.000000,4.000000,1.000000,4.000000,4.000000,4.000000,2.000000,25.000000
1602278929.398636,92.000000,0.000000,3922.051270,4620.512695,4185.128418,4248.205078,3994.358887,4612.307617,3964.615479,3877.948730,4284.615234,3962.051270,4218.461426,4110.769043,4080.000000,3970.256348,426.000000,4.000000,,,,0.000000,4.000000,4.000000,0.000000,4.000000,4.000000,4.000000,4.000000,4.000000,4.000000,1.000000,4.000000,4.000000,4.000000,2.000000,25.000000
1602278929.406463,93.000000,0.000000,3912.307617,4628.717773,4184.615234,4243.589844,3987.179443,4599.487305,3954.358887,3877.435791,4277.436035,3968.205078,4210.769043,4106.666504,4077.948730,3968.205078,356.000000,4.000000,,,,0.000000,4.000000,4.000000,0.000000,4.000000,4.000000,4.000000,4.000000,4.000000,4.000000,1.000000,4.000000,4.000000,4.000000,2.000000,25.000000
1602278929.414390,94.000000,0.000000,3911.281982,4628.205078,4183.077148,4246.666504,3979.487061,4595.897461,3970.769287,3883.076904,4281.025879,3967.179443,4214.358887,4104.615234,4085.641113,3971.281982,444.000000,4.000000,,,,0.000000,4.000000,4.000000,0.000000,4.000000,4.000000,4.000000,4.000000,4.000000,4.000000,1.000000,4.000000,4.000000,4.000000,2.000000,25.000000
1602278929.422217,95.000000,0.000000,3912.307617,4619.487305,4181.538574,4243.077148,3980.000000,4599.487305,3966.153809,3879.487061,4286.153809,3961.025635,4214.871582,4103.077148,4068.205078,3971.281982,241.000000,4.000000,,,,0.000000,4.000000,4.000000,0.000000,4.000000,4.000000,4.000000,4.000000,4.000000,4.000000,1.000000,4.000000,4.000000,4.000000,2.000000,25.000000
1602278929.430143,96.000000,0.000000,3912.820557,4617.948730,4182.051270,4231.794922,3982.564209,4604.615234,3967.692383,3888.718018,4295.897461,3965.641113,4213.333496,4106.153809,4056.923096,3971.281982,426.000000,4.000000,,,,0.000000,4.000000,4.000000,0.000000,4.000000,4.000000,4.000000,4.000000,4.000000,4.000000,1.000000,4.000000,4.000000,4.000000,2.000000,25.000000
1602278929.437970,97.000000,0.000000,3911.794922,4625.641113,4179.487305,4237.948730,3994.358887,4597.948730,3978.974365,3897.948730,4297.436035,3971.281982,4212.820313,4104.102539,4078.974365,3968.718018,356.000000,4.000000,,,,0.000000,4.000000,4.000000,0.000000,4.000000,4.000000,4.000000,4.000000,4.000000,4.000000,1.000000,4.000000,4.000000,4.000000,2.000000,25.000000
1602278929.445896,98.000000,0.000000,3910.769287,4635.897461,4181.538574,4251.794922,4005.641113,4588.205078,3964.615479,3886.666748,4286.666504,3969.230713,4206.666504,4096.410156,4088.205078,3965.128174,444.000000,4.000000,,,,0.000000,4.000000,4.000000,0.000000,4.000000,4.000000,4.000000,4.000000,4.000000,4.000000,1.000000,4.000000,4.000000,4.000000,2.000000,25.000000
1602278929.453722,99.000000,0.000000,3913.846191,4642.563965,4182.563965,4249.230957,3988.205078,4599.487305,3962.051270,3883.589844,4287.179688,3967.179443,4205.641113,4097.436035,4074.358887,3964.615479,241.000000,4.000000,,,,0.000000,4.000000,4.000000,0.000000,4.000000,4.000000,4.000000,4.000000,4.000000,4.000000,1.000000,4.000000,4.000000,4.000000,2.000000,25.000000
1602278929.461648,100.000000,0.000000,3917.948730,4635.384766,4183.589844,4246.153809,3969.743652,4614.871582,3984.102539,3894.871826,4294.871582,3965.128174,4214.358887,4104.615234,4071.794922,3968.205078,426.000000,4.000000,,,,0.000000,4.000000,4.000000,0.000000,4.000000,4.000000,4.000000,4.000000,4.000000,4.000000,1.000000,4.000000,4.000000,4.000000,2.000000,25.000000
1602278929.469474,101.000000,0.000000,3915.897461,4625.641113,4182.051270,4251.794922,3983.076904,4609.230957,3983.076904,3892.820557,4290.769043,3966.666748,4214.871582,4102.051270,4070.256348,3964.102539,356.000000,4.000000,,,,0.000000,4.000000,4.000000,0.000000,4.000000,4.000000,4.000000,4.000000,4.000000,4.000000,1.000000,4.000000,4.000000,4.000000,2.000000,25.000000
1602278929.477201,102.000000,0.000000,3904.615479,4624.615234,4182.051270,4244.615234,3986.153809,4595.384766,3966.666748,3884.615479,4285.641113,3967.692383,4205.641113,4094.358887,4060.000000,3958.974365,444.000000,4.000000,,,,0.000000,4.000000,4.000000,0.000000,4.000000,4.000000,4.000000,4.000000,4.000000,4.000000,1.000000,4.000000,4.000000,4.000000,2.000000,25.000000
1602278929.485027,103.000000,0.000000,3897.435791,4623.077148,4181.025879,4230.769043,3976.923096,4588.717773,3958.461426,3887.179443,4283.589844,3962.564209,4197.948730,4093.333252,4066.153809,3958.461426,241.000000,4.000000,,,,0.000000,4.000000,4.000000,0.000000,4.000000,4.000000,4.000000,4.000000,4.000000,4.000000,1.000000,4.000000,4.000000,4.000000,2.000000,25.000000
1602278929.492753,104.000000,0.000000,3904.615479,4612.307617,4181.025879,4233.333496,3993.846191,4589.743652,3951.794922,3886.153809,4277.436035,3956.923096,4196.922852,4095.897461,4073.846191,3964.102539,426.000000,4.000000,,,,0.000000,4.000000,4.000000,0.000000,4.000000,4.000000,4.000000,4.000000,4.000000,4.000000,1.000000,4.000000,4.000000,4.000000,2.000000,25.000000
1602278929.500579,105.000000,0.000000,3911.794922,4610.256348,4180.512695,4235.384766,3999.487061,4602.563965,3960.000000,3883.589844,4283.077148,3960.000000,4204.102539,4102.051270,4069.743652,3970.256348,356.000000,4.000000,,,,0.000000,4.000000,4.000000,0.000000,4.000000,4.000000,4.000000,4.000000,4.000000,4.000000,1.000000,4.000000,4.000000,4.000000,2.000000,25.000000
1602278929.508305,106.000000,0.000000,3911.794922,4621.538574,4181.025879,4231.794922,3967.179443,4607.179688,3977.435791,3888.205078,4292.307617,3966.153809,4210.256348,4108.717773,4075.384521,3970.769287,444.000000,4.000000,,,,0.000000,4.000000,4.000000,0.000000,4.000000,4.000000,4.000000,4.000000,4.000000,4.000000,1.000000,4.000000,4.000000,4.000000,2.000000,25.000000
1602278929.516130,107.000000,0.000000,3918.974365,4619.487305,4181.025879,4237.948730,3959.487061,4600.512695,3969.230713,3892.820557,4290.769043,3968.718018,4211.794922,4110.769043,4089.230713,3968.718018,241.000000,4.000000,,,,0.000000,4.000000,4.000000,0.000000,4.000000,4.000000,4.000000,4.000000,4.000000,4.000000,1.000000,4.000000,4.000000,4.000000,2.000000,25.000000
1602278929.523856,108.000000,0.000000,3920.512939,4607.692383,4182.563965,4245.641113,3980.512939,4597.948730,3951.794922,3894.871826,4286.153809,3968.205078,4212.820313,4106.666504,4086.153809,3968.718018,426.000000,4.000000,,,,0.000000,4.000000,4.000000,0.000000,4.000000,4.000000,4.000000,4.000000,4.000000,4.000000,1.000000,4.000000,4.000000,4.000000,2.000000,25.000000
1602278929.531681,109.000000,0.000000,3908.718018,4612.307617,4185.641113,4246.666504,3988.205078,4591.282227,3963.076904,3896.923096,4286.666504,3970.256348,4212.307617,4102.563965,4075.384521,3968.205078,356.000000,4.000000,,,,0.000000,4.000000,4.000000,0.000000,4.000000,4.000000,4.000000,4.000000,4.000000,4.000000,1.000000,4.000000,4.000000,4.000000,2.000000,25.000000
1602278929.539407,110.000000,0.000000,3905.641113,4627.692383,4185.641113,4238.974121,3998.974365,4595.384766,3983.076904,3896.923096,4293.333496,3970.256348,4211.282227,4102.051270,4081.025635,3965.128174,444.000000,4.000000,,,,0.000000,4.000000,4.000000,0.000000,4.000000,4.000000,4.000000,4.000000,4.000000,4.000000,1.000000,4.000000,4.000000,4.000000,2.000000,25.000000
1602278929.547232,111.000000,0.000000,3913.846191,4627.179688,4186.666504,4233.846191,4010.769287,4613.333496,3978.974365,3890.769287,4295.897461,3965.641113,4205.641113,4101.025879,4087.179443,3967.692383,241.000000,4.000000,,,,0.000000,4.000000,4.000000,0.000000,4.000000,4.000000,4.000000,4.000000,4.000000,4.000000,1.000000,4.000000,4.000000,4.000000,2.000000,25.000000
