title:your record name, start timestamp:1602278659.767706, stop timestamp:1602278690.070291, headset type:EPOC, headset serial:78629554, headset firmware:1e00, subject name:alzaabi.su, channels:38, sampling rate:128, samples:3876      , version:2.0
Timestamp,EEG.Counter,EEG.Interpolated,EEG.AF3,EEG.F7,EEG.F3,EEG.FC5,EEG.T7,EEG.P7,EEG.O1,EEG.O2,EEG.P8,EEG.T8,EEG.FC6,EEG.F4,EEG.F8,EEG.AF4,EEG.RawCq,EEG.Battery,MarkerIndex,MarkerType,MarkerValueInt,EEG.MarkerHardware,CQ.AF3,CQ.F7,CQ.F3,CQ.FC5,CQ.T7,CQ.P7,CQ.O1,CQ.O2,CQ.P8,CQ.T8,CQ.FC6,CQ.F4,CQ.F8,CQ.AF4,CQ.Overall
1602278659.767706,56.000000,0.000000,3899.487061,4621.025879,4166.666504,4258.974121,3970.256348,4624.102539,3957.435791,3880.000000,4302.563965,4050.256348,4210.769043,4139.487305,4103.589844,3972.820557,0.000000,4.000000,,,,0.000000,4.000000,4.000000,0.000000,4.000000,4.000000,4.000000,4.000000,4.000000,4.000000,1.000000,4.000000,4.000000,4.000000,2.000000,25.000000
1602278659.775632,57.000000,0.000000,3896.923096,4621.025879,4161.538574,4257.948730,3964.102539,4623.589844,3961.538574,3878.974365,4300.512695,4056.410156,4220.000000,4144.102539,4097.948730,3972.820557,0.000000,4.000000,,,,0.000000,4.000000,4.000000,0.000000,4.000000,4.000000,4.000000,4.000000,4.000000,4.000000,1.000000,4.000000,4.000000,4.000000,2.000000,25.000000
1602278659.783457,58.000000,0.000000,3901.538574,4633.333496,4168.717773,4252.307617,3963.589844,4634.871582,3973.846191,3882.051270,4303.077148,4056.410156,4214.358887,4146.666504,4098.974121,3974.871826,0.000000,4.000000,,,,0.000000,4.000000,4.000000,0.000000,4.000000,4.000000,4.000000,4.000000,4.000000,4.000000,1.000000,4.000000,4.000000,4.000000,2.000000,25.000000
1602278659.791382,59.000000,0.000000,3909.743652,4644.102539,4169.743652,4261.025879,3969.743652,4638.461426,3970.769287,3884.615479,4301.025879,4050.769287,4210.256348,4144.615234,4105.641113,3975.897461,0.000000,4.000000,,,,0.000000,4.000000,4.000000,0.000000,4.000000,4.000000,4.000000,4.000000,4.000000,4.000000,1.000000,4.000000,4.000000,4.000000,2.000000,25.000000
1602278659.799208,60.000000,0.000000,3905.641113,4638.974121,4163.589844,4272.820313,3960.512939,4627.692383,3957.435791,3879.487061,4293.846191,4049.743652,4212.820313,4139.487305,4096.922852,3973.846191,0.000000,4.000000,,,,0.000000,4.000000,4.000000,0.000000,4.000000,4.000000,4.000000,4.000000,4.000000,4.000000,1.000000,4.000000,4.000000,4.000000,2.000000,25.000000
1602278659.807133,61.000000,0.000000,3900.000000,4627.692383,4156.922852,4265.641113,3954.358887,4623.077148,3960.000000,3874.358887,4292.820313,4051.794922,4209.230957,4137.436035,4085.641113,3971.281982,0.000000,4.000000,,,,0.000000,4.000000,4.000000,0.000000,4.000000,4.000000,4.000000,4.000000,4.000000,4.000000,1.000000,4.000000,4.000000,4.000000,2.000000,25.000000
1602278659.814958,62.000000,0.000000,3904.615479,4622.563965,4164.615234,4256.410156,3958.461426,4623.077148,3961.538574,3876.923096,4298.461426,4054.358887,4205.641113,4140.000000,4088.718018,3977.948730,0.000000,4.000000,,,,0.000000,4.000000,4.000000,0.000000,4.000000,4.000000,4.000000,4.000000,4.000000,4.000000,1.000000,4.000000,4.000000,4.000000,2.000000,25.000000
1602278659.822883,63.000000,0.000000,3905.641113,4625.128418,4167.179688,4263.589844,3956.410156,4614.358887,3951.281982,3881.025635,4296.922852,4052.307617,4212.820313,4144.102539,4101.538574,3980.000000,0.000000,4.000000,,,,0.000000,4.000000,4.000000,0.000000,4.000000,4.000000,4.000000,4.000000,4.000000,4.000000,1.000000,4.000000,4.000000,4.000000,2.000000,25.000000
1602278659.830708,64.000000,0.000000,3902.564209,4635.897461,4164.615234,4264.615234,3965.641113,4617.436035,3960.512939,3885.641113,4299.487305,4050.256348,4221.025879,4145.128418,4109.743652,3980.512939,0.000000,4.000000,,,,0.000000,4.000000,4.000000,0.000000,4.000000,4.000000,4.000000,4.000000,4.000000,4.000000,1.000000,4.000000,4.000000,4.000000,2.000000,25.000000
1602278659.838433,65.000000,0.000000,3905.128174,4635.897461,4165.128418,4253.333496,3972.820557,4632.820313,3980.512939,3889.230713,4311.282227,4050.769287,4216.922852,4142.563965,4100.000000,3983.076904,425.000000,4.000000,,,,0.000000,4.000000,4.000000,0.000000,4.000000,4.000000,4.000000,4.000000,4.000000,4.000000,1.000000,4.000000,4.000000,4.000000,2.000000,25.000000
1602278659.846258,66.000000,0.000000,3900.512939,4628.205078,4170.769043,4256.410156,3955.897461,4634.358887,3978.974365,3891.281982,4316.410156,4051.281982,4208.205078,4141.025879,4084.615479,3978.461426,388.000000,4.000000,,,,0.000000,4.000000,4.000000,0.000000,4.000000,4.000000,4.000000,4.000000,4.000000,4.000000,1.000000,4.000000,4.000000,4.000000,2.000000,25.000000
1602278659.853983,67.000000,0.000000,3892.820557,4628.717773,4169.743652,4266.153809,3941.538574,4626.666504,3968.205078,3886.153809,4309.230957,4051.281982,4209.230957,4140.512695,4088.718018,3971.794922,444.000000,4.000000,,,,0.000000,4.000000,4.000000,0.000000,4.000000,4.000000,4.000000,4.000000,4.000000,4.000000,1.000000,4.000000,4.000000,4.000000,2.000000,25.000000
1602278659.861807,68.000000,0.000000,3895.384521,4629.230957,4166.666504,4262.563965,3950.256348,4623.077148,3963.076904,3877.435791,4299.487305,4051.794922,4216.922852,4137.948730,4095.384521,3972.820557,478.000000,4.000000,,,,0.000000,4.000000,4.000000,0.000000,4.000000,4.000000,4.000000,4.000000,4.000000,4.000000,1.000000,4.000000,4.000000,4.000000,2.000000,25.000000
1602278659.869532,69.000000,0.000000,3898.974365,4624.102539,4170.256348,4255.897461,3960.512939,4616.410156,3958.461426,3872.820557,4294.358887,4052.307617,4206.666504,4134.871582,4082.051270,3975.897461,416.000000,4.000000,,,,0.000000,4.000000,4.000000,0.000000,4.000000,4.000000,4.000000,4.000000,4.000000,4.000000,1.000000,4.000000,4.000000,4.000000,2.000000,25.000000
1602278659.877356,70.000000,0.000000,3895.897461,4621.025879,4165.641113,4257.436035,3958.974365,4610.256348,3959.487061,3864.615479,4285.128418,4048.205078,4191.282227,4132.820313,4072.820557,3969.743652,472.000000,4.000000,,,,0.000000,4.000000,4.000000,0.000000,4.000000,4.000000,4.000000,4.000000,4.000000,4.000000,1.000000,4.000000,4.000000,4.000000,2.000000,25.000000
1602278659.885081,71.000000,0.000000,3901.538574,4623.589844,4165.641113,4264.615234,3960.512939,4614.358887,3953.846191,3858.974365,4278.974121,4044.102539,4199.487305,4137.948730,4083.076904,3972.820557,394.000000,4.000000,,,,0.000000,4.000000,4.000000,0.000000,4.000000,4.000000,4.000000,4.000000,4.000000,4.000000,1.000000,4.000000,4.000000,4.000000,2.000000,25.000000
1602278659.892905,72.000000,0.000000,3904.102539,4626.666504,4168.205078,4264.102539,3966.666748,4620.512695,3946.153809,3866.666748,4284.102539,4044.615479,4208.205078,4141.538574,4087.179443,3976.923096,414.000000,4.000000,,,,0.000000,4.000000,4.000000,0.000000,4.000000,4.000000,4.000000,4.000000,4.000000,4.000000,1.000000,4.000000,4.000000,4.000000,2.000000,25.000000
1602278659.900629,73.000000,0.000000,3890.256348,4624.615234,4168.205078,4254.358887,3963.076904,4600.512695,3939.487061,3861.025635,4277.436035,4043.076904,4190.769043,4130.769043,4067.179443,3969.230713,45.000000,4.000000,,,,0.000000,4.000000,4.000000,0.000000,4.000000,4.000000,4.000000,4.000000,4.000000,4.000000,1.000000,4.000000,4.000000,4.000000,2.000000,25.000000
1602278659.908453,74.000000,0.000000,3888.205078,4622.563965,4161.538574,4258.974121,3953.846191,4586.153809,3932.820557,3853.333252,4273.333496,4041.538574,4189.743652,4126.666504,4057.435791,3963.076904,444.000000,4.000000,,,,0.000000,4.000000,4.000000,0.000000,4.000000,4.000000,4.000000,4.000000,4.000000,4.000000,1.000000,4.000000,4.000000,4.000000,2.000000,25.000000
1602278659.916177,75.000000,0.000000,3906.666748,4623.077148,4163.589844,4268.717773,3950.256348,4613.846191,3947.179443,3872.307617,4291.282227,4047.692383,4216.410156,4140.512695,4082.564209,3975.384521,233.000000,4.000000,,,,0.000000,4.000000,4.000000,0.000000,4.000000,4.000000,4.000000,4.000000,4.000000,4.000000,1.000000,4.000000,4.000000,4.000000,2.000000,25.000000
1602278659.924103,76.000000,0.000000,3909.230713,4617.948730,4165.641113,4255.897461,3955.897461,4636.410156,3973.333252,3884.615479,4305.128418,4053.846191,4221.538574,4146.666504,4099.487305,3982.564209,428.000000,4.000000,,,,0.000000,4.000000,4.000000,0.000000,4.000000,4.000000,4.000000,4.000000,4.000000,4.000000,1.000000,4.000000,4.000000,4.000000,2.000000,25.000000
1602278659.931929,77.000000,0.000000,3893.846191,4617.948730,4164.102539,4242.051270,3963.589844,4618.974121,3967.692383,3873.846191,4298.461426,4048.718018,4207.179688,4139.487305,4086.153809,3975.384521,355.000000,4.000000,,,,0.000000,4.000000,4.000000,0.000000,4.000000,4.000000,4.000000,4.000000,4.000000,4.000000,1.000000,4.000000,4.000000,4.000000,2.000000,25.000000
1602278659.939854,78.000000,0.000000,3890.256348,4624.102539,4160.512695,4246.666504,3964.102539,4604.615234,3947.692383,3870.256348,4289.743652,4044.615479,4206.153809,4135.897461,4085.641113,3969.743652,444.000000,4.000000,,,,0.000000,4.000000,4.000000,0.000000,4.000000,4.000000,4.000000,4.000000,4.000000,4.000000,1.000000,4.000000,4.000000,4.000000,2.000000,25.000000
1602278659.947680,79.000000,0.000000,3898.461426,4613.333496,4163.077148,4252.820313,3956.410156,4614.871582,3950.256348,3867.692383,4286.153809,4049.230713,4206.153809,4132.307617,4093.333252,3970.769287,233.000000,4.000000,,,,0.000000,4.000000,4.000000,0.000000,4.000000,4.000000,4.000000,4.000000,4.000000,4.000000,1.000000,4.000000,4.000000,4.000000,2.000000,25.000000
1602278659.955605,80.000000,0.000000,3901.538574,4611.794922,4166.153809,4254.358887,3949.230713,4623.077148,3953.846191,3862.564209,4289.230957,4047.179443,4198.974121,4127.179688,4077.435791,3969.743652,428.000000,4.000000,,,,0.000000,4.000000,4.000000,0.000000,4.000000,4.000000,4.000000,4.000000,4.000000,4.000000,1.000000,4.000000,4.000000,4.000000,2.000000,25.000000
1602278659.963430,81.000000,0.000000,3896.410156,4636.922852,4167.692383,4256.922852,3946.153809,4618.974121,3951.281982,3867.692383,4296.410156,4041.538574,4192.820313,4126.666504,4062.051270,3965.641113,355.000000,4.000000,,,,0.000000,4.000000,4.000000,0.000000,4.000000,4.000000,4.000000,4.000000,4.000000,4.000000,1.000000,4.000000,4.000000,4.000000,2.000000,25.000000
1602278659.971355,82.000000,0.000000,3888.205078,4635.384766,4165.641113,4250.256348,3945.641113,4609.230957,3953.333252,3864.102539,4288.205078,4040.512939,4188.717773,4121.538574,4066.666748,3961.025635,444.000000,4.000000,,,,0.000000,4.000000,4.000000,0.000000,4.000000,4.000000,4.000000,4.000000,4.000000,4.000000,1.000000,4.000000,4.000000,4.000000,2.000000,25.000000
1602278659.979181,83.000000,0.000000,3885.641113,4611.282227,4164.102539,4244.615234,3949.743652,4605.128418,3948.205078,3851.281982,4276.922852,4043.076904,4188.717773,4120.512695,4068.718018,3963.589844,233.000000,4.000000,,,,0.000000,4.000000,4.000000,0.000000,4.000000,4.000000,4.000000,4.000000,4.000000,4.000000,1.000000,4.000000,4.000000,4.000000,2.000000,25.000000
1602278659.986906,84.000000,0.000000,3892.307617,4617.436035,4167.179688,4253.333496,3952.307617,4612.820313,3941.025635,3856.410156,4280.512695,4043.589844,4195.384766,4129.743652,4064.102539,3968.205078,428.000000,4.000000,,,,0.000000,4.000000,4.000000,0.000000,4.000000,4.000000,4.000000,4.000000,4.000000,4.000000,1.000000,4.000000,4.000000,4.000000,2.000000,25.000000
1602278659.994731,85.000000,0.000000,3895.897461,4629.743652,4170.256348,4263.589844,3957.948730,4618.461426,3946.666748,3866.153809,4287.692383,4041.538574,4201.538574,4134.871582,4067.692383,3969.743652,355.000000,4.000000,,,,0.000000,4.000000,4.000000,0.000000,4.000000,4.000000,4.000000,4.000000,4.000000,4.000000,1.000000,4.000000,4.000000,4.000000,2.000000,25.000000
1602278660.002456,86.000000,0.000000,3896.923096,4618.461426,4168.717773,4260.000000,3969.230713,4618.461426,3952.820557,3863.076904,4289.230957,4042.564209,4208.717773,4134.871582,4078.461426,3971.794922,444.000000,4.000000,,,,0.000000,4.000000,4.000000,0.000000,4.000000,4.000000,4.000000,4.000000,4.000000,4.000000,1.000000,4.000000,4.000000,4.000000,2.000000,25.000000
1602278660.010281,87.000000,0.000000,3895.384521,4607.692383,4167.692383,4247.692383,3968.718018,4609.743652,3947.179443,3857.948730,4284.615234,4045.128174,4210.256348,4131.794922,4072.307617,3967.179443,233.000000,4.000000,,,,0.000000,4.000000,4.000000,0.000000,4.000000,4.000000,4.000000,4.000000,4.000000,4.000000,1.000000,4.000000,4.000000,4.000000,2.000000,25.000000
1602278660.018006,88.000000,0.000000,3893.333252,4609.230957,4175.384766,4241.025879,3953.846191,4597.436035,3937.948730,3855.897461,4277.948730,4044.102539,4198.974121,4127.692383,4055.897461,3967.179443,428.000000,4.000000,,,,0.000000,4.000000,4.000000,0.000000,4.000000,4.000000,4.000000,4.000000,4.000000,4.000000,1.000000,4.000000,4.000000,4.000000,2.000000,25.000000
1602278660.025831,89.000000,0.000000,3893.846191,4614.871582,4169.230957,4244.615234,3945.128174,4599.487305,3935.897461,3859.487061,4277.948730,4041.025635,4197.436035,4129.230957,4066.666748,3972.307617,355.000000,4.000000,,,,0.000000,4.000000,4.000000,0.000000,4.000000,4.000000,4.000000,4.000000,4.000000,4.000000,1.000000,4.000000,4.000000,4.000000,2.000000,25.000000
1602278660.033556,90.000000,0.000000,3896.923096,4624.615234,4162.051270,4251.282227,3953.333252,4612.307617,3946.153809,3868.205078,4287.692383,4040.512939,4209.230957,4133.333496,4086.666748,3970.769287,444.000000,4.000000,,,,0.000000,4.000000,4.000000,0.000000,4.000000,4.000000,4.000000,4.000000,4.000000,4.000000,1.000000,4.000000,4.000000,4.000000,2.000000,25.000000
1602278660.041380,91.000000,0.000000,3895.384521,4620.512695,4163.077148,4250.256348,3956.923096,4616.922852,3956.923096,3872.820557,4296.922852,4044.102539,4208.717773,4128.205078,4081.538574,3963.076904,233.000000,4.000000,,,,0.000000,4.000000,4.000000,0.000000,4.000000,4.000000,4.000000,4.000000,4.000000,4.000000,1.000000,4.000000,4.000000,4.000000,2.000000,25.000000
1602278660.049105,92.000000,0.000000,3893.846191,4605.641113,4172.820313,4246.666504,3956.923096,4609.230957,3953.846191,3868.718018,4295.897461,4042.051270,4203.589844,4127.179688,4071.281982,3970.256348,428.000000,4.000000,,,,0.000000,4.000000,4.000000,0.000000,4.000000,4.000000,4.000000,4.000000,4.000000,4.000000,1.000000,4.000000,4.000000,4.000000,2.000000,25.000000
1602278660.056929,93.000000,0.000000,3895.384521,4614.358887,4170.256348,4250.256348,3969.743652,4609.230957,3949.230713,3865.641113,4291.794922,4040.512939,4213.333496,4134.871582,4078.974365,3972.307617,355.000000,4.000000,,,,0.000000,4.000000,4.000000,0.000000,4.000000,4.000000,4.000000,4.000000,4.000000,4.000000,1.000000,4.000000,4.000000,4.000000,2.000000,25.000000
1602278660.064653,94.000000,0.000000,3894.358887,4628.205078,4162.051270,4248.205078,3970.256348,4616.410156,3949.743652,3869.743652,4293.333496,4042.564209,4217.436035,4135.384766,4086.666748,3964.615479,444.000000,4.000000,,,,0.000000,4.000000,4.000000,0.000000,4.000000,4.000000,4.000000,4.000000,4.000000,4.000000,1.000000,4.000000,4.000000,4.000000,2.000000,25.000000
1602278660.072478,95.000000,0.000000,3889.743652,4623.077148,4160.512695,4237.948730,3956.410156,4613.333496,3946.153809,3872.307617,4296.410156,4041.025635,4210.769043,4129.230957,4082.051270,3966.666748,233.000000,4.000000,,,,0.000000,4.000000,4.000000,0.000000,4.000000,4.000000,4.000000,4.000000,4.000000,4.000000,1.000000,4.000000,4.000000,4.000000,2.000000,25.000000
1602278660.080202,96.000000,0.000000,3889.230713,4611.794922,4167.692383,4234.358887,3955.897461,4609.743652,3948.718018,3871.794922,4296.410156,4040.000000,4217.948730,4133.333496,4080.512939,3973.846191,428.000000,4.000000,,,,0.000000,4.000000,4.000000,0.000000,4.000000,4.000000,4.000000,4.000000,4.000000,4.000000,1.000000,4.000000,4.000000,4.000000,2.000000,25.000000
1602278660.088026,97.000000,0.000000,3891.794922,4601.025879,4163.589844,4232.820313,3963.589844,4616.922852,3957.948730,3870.769287,4295.897461,4042.564209,4227.692383,4140.512695,4085.641113,3974.358887,355.000000,4.000000,,,,0.000000,4.000000,4.000000,0.000000,4.000000,4.000000,4.000000,4.000000,4.000000,4.000000,1.000000,4.000000,4.000000,4.000000,2.000000,25.000000
1602278660.095750,98.000000,0.000000,3888.718018,4601.538574,4161.538574,4228.205078,3956.410156,4615.384766,3948.718018,3866.666748,4292.307617,4041.538574,4219.487305,4136.922852,4083.076904,3974.358887,444.000000,4.000000,,,,0.000000,4.000000,4.000000,0.000000,4.000000,4.000000,4.000000,4.000000,4.000000,4.000000,1.000000,4.000000,4.000000,4.000000,2.000000,25.000000
1602278660.103676,99.000000,0.000000,3885.641113,4623.077148,4168.205078,4233.333496,3952.307617,4605.128418,3936.410156,3860.512939,4284.102539,4038.974365,4211.794922,4131.794922,4076.923096,3973.333252,233.000000,4.000000,,,,0.000000,4.000000,4.000000,0.000000,4.000000,4.000000,4.000000,4.000000,4.000000,4.000000,1.000000,4.000000,4.000000,4.000000,2.000000,25.000000
1602278660.111502,100.000000,0.000000,3894.358887,4631.794922,4170.769043,4241.025879,3968.205078,4615.897461,3951.794922,3867.692383,4286.153809,4043.589844,4222.051270,4137.436035,4089.230713,3972.820557,428.000000,4.000000,,,,0.000000,4.000000,4.000000,0.000000,4.000000,4.000000,4.000000,4.000000,4.000000,4.000000,1.000000,4.000000,4.000000,4.000000,2.000000,25.000000
1602278660.119427,101.000000,0.000000,3904.615479,4614.358887,4173.846191,4240.000000,3976.923096,4626.153809,3964.615479,3877.435791,4296.410156,4046.666748,4225.641113,4143.589844,4100.000000,3977.948730,355.000000,4.000000,,,,0.000000,4.000000,4.000000,0.000000,4.000000,4.000000,4.000000,4.000000,4.000000,4.000000,1.000000,4.000000,4.000000,4.000000,2.000000,25.000000
1602278660.127253,102.000000,0.000000,3902.564209,4613.333496,4173.846191,4238.974121,3961.538574,4612.820313,3951.794922,3873.333252,4299.487305,4042.564209,4216.410156,4141.025879,4086.666748,3977.435791,444.000000,4.000000,,,,0.000000,4.000000,4.000000,0.000000,4.000000,4.000000,4.000000,4.000000,4.000000,4.000000,1.000000,4.000000,4.000000,4.000000,2.000000,25.000000
1602278660.135178,103.000000,0.000000,3899.487061,4623.077148,4167.179688,4241.025879,3952.307617,4606.666504,3946.153809,3873.333252,4298.974121,4042.051270,4220.512695,4142.563965,4082.564209,3974.871826,233.000000,4.000000,,,,0.000000,4.000000,4.000000,0.000000,4.000000,4.000000,4.000000,4.000000,4.000000,4.000000,1.000000,4.000000,4.000000,4.000000,2.000000,25.000000
1602278660.143004,104.000000,0.000000,3897.948730,4616.922852,4163.589844,4235.384766,3964.102539,4612.820313,3949.230713,3875.897461,4296.410156,4045.128174,4223.077148,4142.051270,4084.102539,3972.820557,428.000000,4.000000,,,,0.000000,4.000000,4.000000,0.000000,4.000000,4.000000,4.000000,4.000000,4.000000,4.000000,1.000000,4.000000,4.000000,4.000000,2.000000,25.000000
1602278660.150929,105.000000,0.000000,3902.564209,4620.000000,4171.794922,4232.307617,3966.666748,4609.743652,3946.666748,3868.718018,4288.717773,4042.051270,4208.717773,4136.922852,4071.794922,3971.794922,355.000000,4.000000,,,,0.000000,4.000000,4.000000,0.000000,4.000000,4.000000,4.000000,4.000000,4.000000,4.000000,1.000000,4.000000,4.000000,4.000000,2.000000,25.000000
1602278660.158755,106.000000,0.000000,3911.794922,4638.461426,4169.230957,4245.128418,3957.435791,4610.769043,3950.256348,3867.692383,4292.820313,4038.974365,4208.205078,4139.487305,4082.051270,3972.820557,444.000000,4.000000,,,,0.000000,4.000000,4.000000,0.000000,4.000000,4.000000,4.000000,4.000000,4.000000,4.000000,1.000000,4.000000,4.000000,4.000000,2.000000,25.000000
1602278660.166680,107.000000,0.000000,3911.281982,4638.974121,4166.153809,4248.205078,3958.974365,4612.820313,3948.205078,3868.718018,4296.922852,4038.461426,4218.461426,4144.615234,4106.153809,3976.923096,233.000000,4.000000,,,,0.000000,4.000000,4.000000,0.000000,4.000000,4.000000,4.000000,4.000000,4.000000,4.000000,1.000000,4.000000,4.000000,4.000000,2.000000,25.000000
1602278660.174505,108.000000,0.000000,3900.512939,4624.102539,4163.077148,4235.897461,3969.743652,4608.205078,3937.948730,3863.589844,4289.743652,4038.974365,4218.461426,4141.538574,4101.538574,3974.871826,428.000000,4.000000,,,,0.000000,4.000000,4.000000,0.000000,4.000000,4.000000,4.000000,4.000000,4.000000,4.000000,1.000000,4.000000,4.000000,4.000000,2.000000,25.000000
1602278660.182230,109.000000,0.000000,3901.538574,4616.410156,4165.128418,4234.871582,3972.307617,4610.769043,3943.589844,3870.256348,4293.846191,4039.487061,4214.871582,4141.538574,4087.692383,3975.897461,355.000000,4.000000,,,,0.000000,4.000000,4.000000,0.000000,4.000000,4.000000,4.000000,4.000000,4.000000,4.000000,1.000000,4.000000,4.000000,4.000000,2.000000,25.000000
1602278660.190055,110.000000,0.000000,3909.230713,4622.563965,4165.128418,4242.051270,3961.538574,4618.461426,3958.461426,3884.615479,4309.230957,4038.461426,4216.922852,4143.589844,4093.333252,3977.948730,444.000000,4.000000,,,,0.000000,4.000000,4.000000,0.000000,4.000000,4.000000,4.000000,4.000000,4.000000,4.000000,1.000000,4.000000,4.000000,4.000000,2.000000,25.000000
1602278660.197779,111.000000,0.000000,3907.692383,4625.641113,4162.563965,4240.000000,3956.410156,4614.871582,3956.923096,3881.538574,4307.692383,4039.487061,4217.948730,4141.025879,4096.410156,3977.948730,233.000000,4.000000,,,,0.000000,4.000000,4.000000,0.000000,4.000000,4.000000,4.000000,4.000000,4.000000,4.000000,1.000000,4.000000,4.000000,4.000000,2.000000,25.000000
1602278660.205604,112.000000,0.000000,3902.051270,4618.461426,4159.487305,4235.384766,3964.102539,4611.794922,3950.256348,3872.820557,4297.436035,4041.538574,4213.846191,4138.974121,4084.102539,3975.384521,428.000000,4.000000,,,,0.000000,4.000000,4.000000,0.000000,4.000000,4.000000,4.000000,4.000000,4.000000,4.000000,1.000000,4.000000,4.000000,4.000000,2.000000,25.000000
1602278660.213329,113.000000,0.000000,3900.000000,4611.282227,4165.128418,4236.410156,3969.743652,4614.871582,3951.794922,3874.358887,4295.384766,4038.974365,4203.077148,4137.436035,4075.384521,3973.333252,355.000000,4.000000,,,,0.000000,4.000000,4.000000,0.000000,4.000000,4.000000,4.000000,4.000000,4.000000,4.000000,1.000000,4.000000,4.000000,4.000000,2.000000,25.000000
1602278660.221154,114.000000,0.000000,3902.051270,4620.512695,4169.743652,4238.461426,3966.666748,4610.769043,3949.230713,3874.871826,4294.358887,4035.897461,4200.512695,4137.436035,4081.025635,3974.358887,444.000000,4.000000,,,,0.000000,4.000000,4.000000,0.000000,4.000000,4.000000,4.000000,4.000000,4.000000,4.000000,1.000000,4.000000,4.000000,4.000000,2.000000,25.000000
1602278660.228878,115.000000,0.000000,3904.615479,4636.410156,4169.230957,4243.077148,3963.076904,4607.179688,3946.153809,3870.256348,4291.794922,4039.487061,4212.307617,4141.538574,4089.743652,3978.974365,233.000000,4.000000,,,,0.000000,4.000000,4.000000,0.000000,4.000000,4.000000,4.000000,4.000000,4.000000,4.000000,1.000000,4.000000,4.000000,4.000000,2.000000,25.000000
1602278660.236702,116.000000,0.000000,3904.102539,4633.333496,4168.717773,4249.743652,3965.128174,4613.333496,3951.794922,3870.769287,4294.358887,4037.948730,4213.846191,4142.563965,4087.179443,3977.948730,428.000000,4.000000,,,,0.000000,4.000000,4.000000,0.000000,4.000000,4.000000,4.000000,4.000000,4.000000,4.000000,1.000000,4.000000,4.000000,4.000000,2.000000,25.000000
1602278660.244427,117.000000,0.000000,3903.589844,4627.179688,4169.743652,4260.000000,3970.769287,4618.461426,3957.948730,3875.897461,4301.025879,4033.846191,4207.692383,4139.487305,4082.564209,3975.897461,355.000000,4.000000,,,,0.000000,4.000000,4.000000,0.000000,4.000000,4.000000,4.000000,4.000000,4.000000,4.000000,1.000000,4.000000,4.000000,4.000000,2.000000,25.000000
1602278660.252251,118.000000,0.000000,3906.153809,4630.769043,4171.794922,4266.666504,3961.025635,4610.256348,3945.641113,3870.256348,4298.461426,4036.410156,4202.563965,4138.974121,4079.487061,3977.948730,444.000000,4.000000,,,,0.000000,4.000000,4.000000,0.000000,4.000000,4.000000,4.000000,4.000000,4.000000,4.000000,1.000000,4.000000,4.000000,4.000000,2.000000,25.000000
1602278660.259976,119.000000,0.000000,3906.666748,4629.743652,4167.692383,4257.948730,3953.333252,4598.461426,3931.281982,3863.076904,4287.179688,4038.461426,4205.641113,4140.000000,4077.948730,3977.435791,233.000000,4.000000,,,,0.000000,4.000000,4.000000,0.000000,4.000000,4.000000,4.000000,4.000000,4.000000,4.000000,1.000000,4.000000,4.000000,4.000000,2.000000,25.000000
1602278660.267800,120.000000,0.000000,3906.666748,4623.589844,4168.205078,4251.282227,3967.692383,4597.948730,3938.461426,3867.179443,4286.153809,4036.410156,4213.333496,4141.025879,4085.641113,3978.461426,428.000000,4.000000,,,,0.000000,4.000000,4.000000,0.000000,4.000000,4.000000,4.000000,4.000000,4.000000,4.000000,1.000000,4.000000,4.000000,4.000000,2.000000,25.000000
1602278660.275524,121.000000,0.000000,3907.692383,4631.282227,4167.179688,4264.102539,3973.846191,4609.743652,3953.846191,3870.256348,4296.922852,4038.461426,4218.461426,4140.512695,4100.512695,3978.974365,355.000000,4.000000,,,,0.000000,4.000000,4.000000,0.000000,4.000000,4.000000,4.000000,4.000000,4.000000,4.000000,1.000000,4.000000,4.000000,4.000000,2.000000,25.000000
1602278660.283450,122.000000,0.000000,3913.846191,4642.051270,4168.205078,4274.871582,3970.769287,4627.179688,3962.564209,3871.281982,4306.153809,4041.025635,4223.077148,4145.128418,4109.743652,3981.025635,444.000000,4.000000,,,,0.000000,4.000000,4.000000,0.000000,4.000000,4.000000,4.000000,4.000000,4.000000,4.000000,1.000000,4.000000,4.000000,4.000000,2.000000,25.000000
1602278660.291276,123.000000,0.000000,3913.333252,4641.025879,4165.128418,4270.256348,3977.948730,4628.717773,3964.102539,3872.307617,4307.179688,4037.435791,4225.641113,4148.717773,4099.487305,3983.589844,233.000000,4.000000,,,,0.000000,4.000000,4.000000,0.000000,4.000000,4.000000,4.000000,4.000000,4.000000,4.000000,1.000000,4.000000,4.000000,4.000000,2.000000,25.000000
1602278660.299202,124.000000,0.000000,3906.153809,4642.051270,4165.641113,4263.077148,3975.897461,4613.333496,3954.871826,3867.179443,4300.000000,4034.358887,4217.948730,4145.641113,4087.179443,3985.128174,428.000000,4.000000,,,,0.000000,4.000000,4.000000,0.000000,4.000000,4.000000,4.000000,4.000000,4.000000,4.000000,1.000000,4.000000,4.000000,4.000000,2.000000,25.000000
1602278660.307028,125.000000,0.000000,3905.128174,4640.512695,4160.000000,4262.563965,3963.076904,4609.230957,3946.153809,3864.615479,4294.358887,4036.923096,4213.846191,4141.538574,4097.436035,3977.948730,355.000000,4.000000,,,,0.000000,4.000000,4.000000,0.000000,4.000000,4.000000,4.000000,4.000000,4.000000,4.000000,1.000000,4.000000,4.000000,4.000000,2.000000,25.000000
1602278660.314953,126.000000,0.000000,3910.769287,4630.256348,4165.641113,4260.512695,3962.051270,4614.871582,3948.205078,3870.256348,4295.897461,4038.461426,4219.487305,4142.563965,4107.692383,3977.435791,444.000000,4.000000,,,,0.000000,4.000000,4.000000,0.000000,4.000000,4.000000,4.000000,4.000000,4.000000,4.000000,1.000000,4.000000,4.000000,4.000000,2.000000,25.000000
1602278660.322779,127.000000,0.000000,3907.179443,4625.128418,4172.307617,4252.820313,3969.230713,4615.384766,3953.333252,3873.846191,4300.000000,4036.923096,4220.512695,4142.563965,4097.948730,3979.487061,233.000000,4.000000,,,,0.000000,4.000000,4.000000,0.000000,4.000000,4.000000,4.000000,4.000000,4.000000,4.000000,1.000000,4.000000,4.000000,4.000000,2.000000,25.000000
1602278660.330704,128.000000,0.000000,3898.974365,4625.128418,4165.641113,4247.179688,3970.256348,4612.820313,3953.846191,3873.846191,4300.000000,4035.384521,4215.897461,4140.512695,4092.820557,3976.410156,428.000000,4.000000,,,,0.000000,4.000000,4.000000,0.000000,4.000000,4.000000,4.000000,4.000000,4.000000,4.000000,1.000000,4.000000,4.000000,4.000000,2.000000,25.000000
1602278660.338529,0.000000,0.000000,3901.538574,4623.589844,4158.461426,4250.769043,3972.307617,4614.358887,3954.871826,3878.974365,4302.051270,4036.410156,4216.410156,4143.077148,4093.333252,3975.897461,0.000000,4.000000,,,,0.000000,4.000000,4.000000,0.000000,4.000000,4.000000,4.000000,4.000000,4.000000,4.000000,1.000000,4.000000,4.000000,4.000000,2.000000,25.000000
1602278660.346454,1.000000,0.000000,3910.256348,4624.102539,4165.128418,4263.077148,3975.384521,4617.948730,3962.051270,3886.153809,4311.794922,4038.974365,4219.487305,4148.717773,4092.820557,3981.538574,425.000000,4.000000,,,,0.000000,4.000000,4.000000,0.000000,4.000000,4.000000,4.000000,4.000000,4.000000,4.000000,1.000000,4.000000,4.000000,4.000000,2.000000,25.000000
1602278660.354280,2.000000,0.000000,3910.769287,4627.692383,4170.256348,4266.153809,3978.974365,4627.179688,3971.281982,3890.256348,4319.487305,4038.461426,4224.102539,4152.307617,4103.589844,3984.102539,388.000000,4.000000,,,,0.000000,4.000000,4.000000,0.000000,4.000000,4.000000,4.000000,4.000000,4.000000,4.000000,1.000000,4.000000,4.000000,4.000000,2.000000,25.000000
1602278660.362205,3.000000,0.000000,3903.589844,4628.205078,4167.179688,4257.948730,3984.615479,4626.666504,3967.179443,3886.666748,4310.769043,4035.897461,4224.102539,4148.205078,4105.641113,3977.948730,444.000000,4.000000,,,,0.000000,4.000000,4.000000,0.000000,4.000000,4.000000,4.000000,4.000000,4.000000,4.000000,1.000000,4.000000,4.000000,4.000000,2.000000,25.000000
1602278660.370030,4.000000,0.000000,3901.025635,4624.102539,4169.230957,4250.769043,3978.974365,4613.846191,3950.769287,3873.846191,4296.410156,4035.384521,4211.794922,4140.000000,4089.230713,3975.384521,478.000000,4.000000,,,,0.000000,4.000000,4.000000,0.000000,4.000000,4.000000,4.000000,4.000000,4.000000,4.000000,1.000000,4.000000,4.000000,4.000000,2.000000,25.000000
1602278660.377755,5.000000,0.000000,3909.743652,4624.102539,4170.256348,4253.333496,3971.794922,4615.384766,3950.769287,3871.794922,4300.512695,4035.897461,4210.256348,4142.051270,4085.641113,3980.512939,416.000000,4.000000,,,,0.000000,4.000000,4.000000,0.000000,4.000000,4.000000,4.000000,4.000000,4.000000,4.000000,1.000000,4.000000,4.000000,4.000000,2.000000,25.000000
1602278660.385580,6.000000,0.000000,3914.358887,4627.692383,4171.794922,4255.384766,3978.974365,4626.666504,3964.615479,3878.974365,4309.743652,4035.897461,4223.589844,4150.769043,4098.461426,3984.102539,472.000000,4.000000,,,,0.000000,4.000000,4.000000,0.000000,4.000000,4.000000,4.000000,4.000000,4.000000,4.000000,1.000000,4.000000,4.000000,4.000000,2.000000,25.000000
1602278660.393304,7.000000,0.000000,3904.615479,4630.256348,4172.307617,4252.820313,3981.025635,4627.179688,3966.666748,3880.512939,4304.102539,4035.384521,4226.153809,4149.230957,4097.436035,3976.923096,394.000000,4.000000,,,,0.000000,4.000000,4.000000,0.000000,4.000000,4.000000,4.000000,4.000000,4.000000,4.000000,1.000000,4.000000,4.000000,4.000000,2.000000,25.000000
1602278660.401129,8.000000,0.000000,3900.000000,4624.102539,4171.282227,4251.794922,3971.794922,4618.461426,3956.410156,3873.333252,4294.358887,4034.871826,4212.307617,4142.563965,4079.487061,3974.871826,414.000000,4.000000,,,,0.000000,4.000000,4.000000,0.000000,4.000000,4.000000,4.000000,4.000000,4.000000,4.000000,1.000000,4.000000,4.000000,4.000000,2.000000,25.000000
1602278660.408854,9.000000,0.000000,3904.102539,4612.307617,4164.102539,4252.307617,3972.307617,4612.307617,3948.205078,3871.281982,4294.871582,4033.846191,4203.589844,4140.512695,4074.358887,3976.410156,45.000000,4.000000,,,,0.000000,4.000000,4.000000,0.000000,4.000000,4.000000,4.000000,4.000000,4.000000,4.000000,1.000000,4.000000,4.000000,4.000000,2.000000,25.000000
1602278660.416678,10.000000,0.000000,3903.589844,4615.897461,4166.153809,4248.717773,3971.281982,4608.205078,3946.666748,3870.769287,4294.871582,4031.281982,4201.025879,4140.000000,4081.025635,3974.358887,444.000000,4.000000,,,,0.000000,4.000000,4.000000,0.000000,4.000000,4.000000,4.000000,4.000000,4.000000,4.000000,1.000000,4.000000,4.000000,4.000000,2.000000,25.000000
1602278660.424403,11.000000,0.000000,3902.564209,4631.794922,4165.128418,4246.666504,3965.128174,4604.615234,3943.589844,3864.615479,4288.205078,4030.769287,4201.025879,4138.974121,4084.615479,3974.871826,235.000000,4.000000,,,,0.000000,4.000000,4.000000,0.000000,4.000000,4.000000,4.000000,4.000000,4.000000,4.000000,1.000000,4.000000,4.000000,4.000000,2.000000,25.000000
1602278660.432227,12.000000,0.000000,3911.794922,4641.025879,4162.563965,4258.461426,3973.846191,4608.205078,3942.051270,3862.564209,4288.717773,4033.846191,4207.692383,4142.563965,4090.769287,3981.025635,428.000000,4.000000,,,,0.000000,4.000000,4.000000,0.000000,4.000000,4.000000,4.000000,4.000000,4.000000,4.000000,1.000000,4.000000,4.000000,4.000000,2.000000,25.000000
1602278660.439951,13.000000,0.000000,3915.384521,4643.077148,4160.512695,4269.743652,3984.102539,4621.538574,3953.333252,3869.743652,4296.922852,4037.435791,4212.307617,4148.717773,4098.974121,3979.487061,355.000000,4.000000,,,,0.000000,4.000000,4.000000,0.000000,4.000000,4.000000,4.000000,4.000000,4.000000,4.000000,1.000000,4.000000,4.000000,4.000000,2.000000,25.000000
1602278660.447775,14.000000,0.000000,3907.692383,4629.230957,4164.102539,4258.974121,3975.384521,4625.128418,3961.538574,3873.333252,4298.461426,4035.384521,4205.641113,4146.666504,4091.281982,3976.410156,444.000000,4.000000,,,,0.000000,4.000000,4.000000,0.000000,4.000000,4.000000,4.000000,4.000000,4.000000,4.000000,1.000000,4.000000,4.000000,4.000000,2.000000,25.000000
1602278660.455499,15.000000,0.000000,3904.102539,4606.666504,4164.615234,4240.000000,3961.538574,4607.179688,3950.769287,3862.564209,4288.717773,4029.743652,4196.922852,4140.000000,4079.487061,3976.923096,235.000000,4.000000,,,,0.000000,4.000000,4.000000,0.000000,4.000000,4.000000,4.000000,4.000000,4.000000,4.000000,1.000000,4.000000,4.000000,4.000000,2.000000,25.000000
1602278660.463323,16.000000,0.000000,3906.153809,4612.307617,4168.717773,4241.538574,3962.564209,4594.871582,3937.948730,3851.281982,4278.974121,4024.615479,4195.384766,4139.487305,4080.512939,3978.461426,0.000000,4.000000,,,,0.000000,4.000000,4.000000,0.000000,4.000000,4.000000,4.000000,4.000000,4.000000,4.000000,1.000000,4.000000,4.000000,4.000000,2.000000,25.000000
1602278660.471047,17.000000,0.000000,3905.641113,4636.410156,4168.205078,4254.871582,3972.820557,4605.128418,3942.051270,3857.435791,4280.512695,4024.615479,4202.051270,4142.051270,4081.025635,3978.461426,0.000000,4.000000,,,,0.000000,4.000000,4.000000,0.000000,4.000000,4.000000,4.000000,4.000000,4.000000,4.000000,1.000000,4.000000,4.000000,4.000000,2.000000,25.000000
1602278660.478973,18.000000,0.000000,3902.564209,4635.384766,4162.051270,4257.948730,3974.358887,4615.897461,3950.769287,3866.666748,4284.102539,4027.179443,4202.563965,4138.974121,4076.923096,3976.923096,0.000000,4.000000,,,,0.000000,4.000000,4.000000,0.000000,4.000000,4.000000,4.000000,4.000000,4.000000,4.000000,1.000000,4.000000,4.000000,4.000000,2.000000,25.000000
1602278660.486799,19.000000,0.000000,3901.538574,4618.974121,4166.153809,4250.769043,3965.128174,4617.948730,3953.333252,3860.512939,4282.051270,4025.128174,4192.307617,4135.384766,4071.794922,3973.333252,0.000000,4.000000,,,,0.000000,4.000000,4.000000,0.000000,4.000000,4.000000,4.000000,4.000000,4.000000,4.000000,1.000000,4.000000,4.000000,4.000000,2.000000,25.000000
1602278660.494724,20.000000,0.000000,3897.948730,4612.820313,4172.820313,4245.128418,3970.256348,4612.307617,3946.153809,3852.307617,4279.487305,4022.051270,4187.179688,4132.820313,4064.615479,3972.820557,0.000000,4.000000,,,,0.000000,4.000000,4.000000,0.000000,4.000000,4.000000,4.000000,4.000000,4.000000,4.000000,1.000000,4.000000,4.000000,4.000000,2.000000,25.000000
1602278660.502550,21.000000,0.000000,3890.256348,4607.692383,4167.179688,4245.128418,3981.538574,4600.512695,3936.923096,3857.948730,4280.512695,4025.641113,4189.230957,4129.743652,4064.615479,3972.820557,0.000000,4.000000,,,,0.000000,4.000000,4.000000,0.000000,4.000000,4.000000,4.000000,4.000000,4.000000,4.000000,1.000000,4.000000,4.000000,4.000000,2.000000,25.000000
1602278660.510475,22.000000,0.000000,3887.179443,4603.589844,4163.589844,4244.615234,3969.230713,4602.563965,3945.641113,3868.718018,4288.205078,4030.769287,4193.333496,4133.333496,4074.871826,3968.718018,0.000000,4.000000,,,,0.000000,4.000000,4.000000,0.000000,4.000000,4.000000,4.000000,4.000000,4.000000,4.000000,1.000000,4.000000,4.000000,4.000000,2.000000,25.000000
1602278660.518301,23.000000,0.000000,3894.871826,4611.794922,4174.358887,4243.077148,3956.923096,4617.436035,3956.410156,3873.846191,4305.128418,4034.871826,4202.051270,4141.025879,4083.076904,3973.333252,0.000000,4.000000,,,,0.000000,4.000000,4.000000,0.000000,4.000000,4.000000,4.000000,4.000000,4.000000,4.000000,1.000000,4.000000,4.000000,4.000000,2.000000,25.000000
1602278660.526226,24.000000,0.000000,3898.461426,4625.641113,4169.230957,4245.128418,3967.692383,4619.487305,3952.307617,3874.871826,4313.846191,4039.487061,4208.717773,4141.025879,4086.666748,3981.538574,0.000000,4.000000,,,,0.000000,4.000000,4.000000,0.000000,4.000000,4.000000,4.000000,4.000000,4.000000,4.000000,1.000000,4.000000,4.000000,4.000000,2.000000,25.000000
1602278660.534051,25.000000,0.000000,3897.435791,4626.153809,4165.128418,4249.230957,3973.333252,4608.717773,3944.102539,3871.281982,4301.538574,4040.000000,4207.692383,4139.487305,4089.230713,3980.512939,0.000000,4.000000,,,,0.000000,4.000000,4.000000,0.000000,4.000000,4.000000,4.000000,4.000000,4.000000,4.000000,1.000000,4.000000,4.000000,4.000000,2.000000,25.000000
1602278660.541976,26.000000,0.000000,3897.948730,4616.410156,4163.589844,4250.769043,3964.615479,4607.692383,3947.179443,3869.230713,4295.384766,4038.461426,4207.692383,4139.487305,4086.666748,3970.769287,0.000000,4.000000,,,,0.000000,4.000000,4.000000,0.000000,4.000000,4.000000,4.000000,4.000000,4.000000,4.000000,1.000000,4.000000,4.000000,4.000000,2.000000,25.000000
1602278660.549800,27.000000,0.000000,3900.000000,4620.000000,4164.102539,4253.333496,3969.230713,4611.794922,3949.743652,3868.205078,4297.436035,4038.461426,4204.102539,4138.974121,4076.410156,3969.743652,0.000000,4.000000,,,,0.000000,4.000000,4.000000,0.000000,4.000000,4.000000,4.000000,4.000000,4.000000,4.000000,1.000000,4.000000,4.000000,4.000000,2.000000,25.000000
1602278660.557525,28.000000,0.000000,3901.538574,4631.282227,4163.077148,4256.922852,3983.076904,4610.769043,3946.153809,3864.102539,4292.307617,4034.871826,4191.794922,4135.897461,4071.794922,3972.820557,0.000000,4.000000,,,,0.000000,4.000000,4.000000,0.000000,4.000000,4.000000,4.000000,4.000000,4.000000,4.000000,1.000000,4.000000,4.000000,4.000000,2.000000,25.000000
1602278660.565350,29.000000,0.000000,3903.076904,4631.282227,4166.153809,4257.436035,3977.435791,4609.743652,3946.666748,3864.615479,4288.717773,4033.333252,4190.256348,4136.410156,4077.435791,3973.333252,0.000000,4.000000,,,,0.000000,4.000000,4.000000,0.000000,4.000000,4.000000,4.000000,4.000000,4.000000,4.000000,1.000000,4.000000,4.000000,4.000000,2.000000,25.000000
1602278660.573075,30.000000,0.000000,3903.589844,4627.692383,4160.512695,4256.922852,3968.205078,4611.282227,3947.179443,3868.205078,4289.230957,4036.923096,4200.512695,4140.000000,4083.589844,3973.846191,0.000000,4.000000,,,,0.000000,4.000000,4.000000,0.000000,4.000000,4.000000,4.000000,4.000000,4.000000,4.000000,1.000000,4.000000,4.000000,4.000000,2.000000,25.000000
1602278660.580900,31.000000,0.000000,3900.512939,4619.487305,4163.077148,4254.871582,3970.769287,4602.051270,3937.948730,3862.051270,4281.538574,4034.871826,4196.410156,4139.487305,4071.281982,3972.820557,0.000000,4.000000,,,,0.000000,4.000000,4.000000,0.000000,4.000000,4.000000,4.000000,4.000000,4.000000,4.000000,1.000000,4.000000,4.000000,4.000000,2.000000,25.000000
1602278660.588624,32.000000,0.000000,3898.974365,4614.358887,4170.256348,4253.846191,3974.358887,4594.358887,3931.281982,3857.948730,4277.436035,4030.256348,4184.615234,4135.897461,4052.307617,3970.256348,0.000000,4.000000,,,,0.000000,4.000000,4.000000,0.000000,4.000000,4.000000,4.000000,4.000000,4.000000,4.000000,1.000000,4.000000,4.000000,4.000000,2.000000,25.000000
1602278660.596449,33.000000,0.000000,3904.615479,4626.666504,4166.153809,4256.922852,3975.897461,4605.641113,3941.025635,3863.589844,4288.205078,4032.820557,4192.820313,4136.410156,4058.461426,3971.794922,0.000000,4.000000,,,,0.000000,4.000000,4.000000,0.000000,4.000000,4.000000,4.000000,4.000000,4.000000,4.000000,1.000000,4.000000,4.000000,4.000000,2.000000,25.000000
1602278660.604173,34.000000,0.000000,3907.692383,4634.358887,4159.487305,4258.461426,3976.410156,4613.333496,3949.230713,3866.666748,4291.282227,4035.384521,4203.589844,4141.025879,4075.897461,3973.846191,0.000000,4.000000,,,,0.000000,4.000000,4.000000,0.000000,4.000000,4.000000,4.000000,4.000000,4.000000,4.000000,1.000000,4.000000,4.000000,4.000000,2.000000,25.000000
1602278660.611997,35.000000,0.000000,3903.076904,4628.717773,4165.641113,4256.922852,3972.820557,4610.769043,3948.205078,3867.179443,4287.179688,4033.333252,4197.436035,4141.538574,4077.435791,3973.846191,0.000000,4.000000,,,,0.000000,4.000000,4.000000,0.000000,4.000000,4.000000,4.000000,4.000000,4.000000,4.000000,1.000000,4.000000,4.000000,4.000000,2.000000,25.000000
1602278660.619721,36.000000,0.000000,3903.076904,4630.769043,4172.307617,4256.922852,3984.102539,4616.922852,3951.281982,3871.794922,4296.410156,4035.384521,4198.461426,4143.077148,4074.358887,3976.410156,0.000000,4.000000,,,,0.000000,4.000000,4.000000,0.000000,4.000000,4.000000,4.000000,4.000000,4.000000,4.000000,1.000000,4.000000,4.000000,4.000000,2.000000,25.000000
1602278660.627647,37.000000,0.000000,3907.179443,4631.794922,4168.717773,4259.487305,3995.897461,4619.487305,3948.205078,3875.384521,4302.563965,4040.512939,4207.179688,4144.615234,4076.410156,3978.461426,0.000000,4.000000,,,,0.000000,4.000000,4.000000,0.000000,4.000000,4.000000,4.000000,4.000000,4.000000,4.000000,1.000000,4.000000,4.000000,4.000000,2.000000,25.000000
1602278660.635474,38.000000,0.000000,3905.641113,4621.538574,4168.205078,4261.025879,3976.923096,4607.179688,3939.487061,3869.743652,4286.666504,4038.974365,4198.461426,4138.974121,4074.871826,3975.897461,0.000000,4.000000,,,,0.000000,4.000000,4.000000,0.000000,4.000000,4.000000,4.000000,4.000000,4.000000,4.000000,1.000000,4.000000,4.000000,4.000000,2.000000,25.000000
1602278660.643399,39.000000,0.000000,3901.025635,4622.051270,4166.666504,4263.077148,3957.435791,4602.563965,3940.000000,3861.025635,4274.358887,4034.871826,4190.256348,4135.384766,4073.846191,3969.743652,0.000000,4.000000,,,,0.000000,4.000000,4.000000,0.000000,4.000000,4.000000,4.000000,4.000000,4.000000,4.000000,1.000000,4.000000,4.000000,4.000000,2.000000,25.000000
1602278660.651225,40.000000,0.000000,3898.461426,4625.128418,4168.205078,4255.897461,3966.666748,4605.641113,3944.102539,3855.384521,4278.974121,4033.846191,4196.922852,4136.922852,4067.692383,3969.743652,0.000000,4.000000,,,,0.000000,4.000000,4.000000,0.000000,4.000000,4.000000,4.000000,4.000000,4.000000,4.000000,1.000000,4.000000,4.000000,4.000000,2.000000,25.000000
1602278660.659151,41.000000,0.000000,3897.948730,4618.461426,4167.692383,4250.256348,3980.000000,4602.051270,3945.128174,3856.923096,4281.538574,4032.820557,4196.410156,4136.410156,4057.435791,3973.333252,0.000000,4.000000,,,,0.000000,4.000000,4.000000,0.000000,4.000000,4.000000,4.000000,4.000000,4.000000,4.000000,1.000000,4.000000,4.000000,4.000000,2.000000,25.000000
1602278660.666976,42.000000,0.000000,3902.564209,4620.000000,4168.717773,4260.512695,3982.051270,4600.000000,3939.487061,3856.923096,4278.461426,4032.307617,4191.794922,4138.461426,4063.076904,3976.923096,0.000000,4.000000,,,,0.000000,4.000000,4.000000,0.000000,4.000000,4.000000,4.000000,4.000000,4.000000,4.000000,1.000000,4.000000,4.000000,4.000000,2.000000,25.000000
1602278660.674902,43.000000,0.000000,3907.179443,4634.871582,4161.025879,4268.717773,3980.512939,4605.128418,3935.384521,3854.358887,4278.461426,4034.871826,4200.512695,4141.025879,4080.000000,3971.281982,0.000000,4.000000,,,,0.000000,4.000000,4.000000,0.000000,4.000000,4.000000,4.000000,4.000000,4.000000,4.000000,1.000000,4.000000,4.000000,4.000000,2.000000,25.000000
1602278660.682727,44.000000,0.000000,3905.128174,4639.487305,4163.589844,4261.025879,3968.718018,4609.743652,3940.512939,3857.948730,4276.922852,4036.410156,4202.563965,4140.000000,4082.564209,3971.281982,0.000000,4.000000,,,,0.000000,4.000000,4.000000,0.000000,4.000000,4.000000,4.000000,4.000000,4.000000,4.000000,1.000000,4.000000,4.000000,4.000000,2.000000,25.000000
1602278660.690652,45.000000,0.000000,3900.000000,4627.692383,4164.615234,4251.282227,3962.051270,4612.307617,3952.307617,3865.641113,4282.051270,4032.820557,4194.358887,4137.436035,4068.205078,3973.846191,0.000000,4.000000,,,,0.000000,4.000000,4.000000,0.000000,4.000000,4.000000,4.000000,4.000000,4.000000,4.000000,1.000000,4.000000,4.000000,4.000000,2.000000,25.000000
1602278660.698478,46.000000,0.000000,3901.025635,4617.948730,4160.000000,4254.358887,3974.358887,4620.000000,3960.512939,3876.410156,4296.922852,4033.846191,4200.512695,4141.025879,4060.000000,3973.846191,0.000000,4.000000,,,,0.000000,4.000000,4.000000,0.000000,4.000000,4.000000,4.000000,4.000000,4.000000,4.000000,1.000000,4.000000,4.000000,4.000000,2.000000,25.000000
1602278660.706403,47.000000,0.000000,3907.692383,4621.025879,4165.128418,4260.512695,3985.128174,4625.128418,3964.615479,3879.487061,4300.512695,4038.461426,4212.820313,4145.128418,4069.743652,3974.871826,0.000000,4.000000,,,,0.000000,4.000000,4.000000,0.000000,4.000000,4.000000,4.000000,4.000000,4.000000,4.000000,1.000000,4.000000,4.000000,4.000000,2.000000,25.000000
1602278660.714228,48.000000,0.000000,3902.564209,4618.461426,4177.436035,4246.666504,3974.358887,4612.307617,3953.846191,3867.692383,4283.077148,4033.846191,4204.102539,4135.384766,4071.794922,3973.333252,0.000000,4.000000,,,,0.000000,4.000000,4.000000,0.000000,4.000000,4.000000,4.000000,4.000000,4.000000,4.000000,1.000000,4.000000,4.000000,4.000000,2.000000,25.000000
1602278660.722153,49.000000,0.000000,3892.820557,4612.307617,4170.256348,4227.179688,3964.102539,4602.563965,3939.487061,3860.000000,4272.820313,4026.666748,4190.769043,4124.102539,4055.897461,3968.205078,0.000000,4.000000,,,,0.000000,4.000000,4.000000,0.000000,4.000000,4.000000,4.000000,4.000000,4.000000,4.000000,1.000000,4.000000,4.000000,4.000000,2.000000,25.000000
1602278660.729978,50.000000,0.000000,3896.923096,4622.051270,4158.974121,4233.846191,3974.358887,4611.282227,3946.153809,3867.692383,4286.153809,4029.230713,4200.512695,4131.794922,4062.051270,3970.256348,0.000000,4.000000,,,,0.000000,4.000000,4.000000,0.000000,4.000000,4.000000,4.000000,4.000000,4.000000,4.000000,1.000000,4.000000,4.000000,4.000000,2.000000,25.000000
1602278660.737703,51.000000,0.000000,3907.692383,4633.846191,4167.692383,4250.769043,3980.512939,4616.922852,3954.358887,3873.846191,4294.358887,4036.410156,4219.487305,4145.128418,4088.205078,3978.461426,0.000000,4.000000,,,,0.000000,4.000000,4.000000,0.000000,4.000000,4.000000,4.000000,4.000000,4.000000,4.000000,1.000000,4.000000,4.000000,4.000000,2.000000,25.000000
1602278660.745528,52.000000,0.000000,3909.743652,4631.282227,4173.333496,4246.666504,3968.205078,4612.307617,3949.743652,3871.281982,4290.256348,4038.974365,4221.025879,4143.077148,4088.718018,3976.923096,0.000000,4.000000,,,,0.000000,4.000000,4.000000,0.000000,4.000000,4.000000,4.000000,4.000000,4.000000,4.000000,1.000000,4.000000,4.000000,4.000000,2.000000,25.000000
1602278660.753253,53.000000,0.000000,3905.128174,4616.922852,4167.692383,4236.410156,3964.615479,4608.717773,3945.128174,3868.205078,4289.743652,4038.974365,4210.769043,4135.897461,4069.230713,3972.820557,0.000000,4.000000,,,,0.000000,4.000000,4.000000,0.000000,4.000000,4.000000,4.000000,4.000000,4.000000,4.000000,1.000000,4.000000,4.000000,4.000000,2.000000,25.000000
1602278660.761078,54.000000,0.000000,3901.538574,4612.307617,4164.102539,4237.948730,3975.897461,4611.794922,3949.743652,3868.718018,4291.282227,4037.948730,4211.282227,4135.897461,4067.179443,3974.358887,0.000000,4.000000,,,,0.000000,4.000000,4.000000,0.000000,4.000000,4.000000,4.000000,4.000000,4.000000,4.000000,1.000000,4.000000,4.000000,4.000000,2.000000,25.000000
1602278660.768802,55.000000,0.000000,3904.102539,4624.615234,4164.615234,4243.589844,3982.051270,4617.948730,3953.846191,3870.256348,4292.820313,4039.487061,4222.563965,4140.000000,4076.410156,3976.923096,0.000000,4.000000,,,,0.000000,4.000000,4.000000,0.000000,4.000000,4.000000,4.000000,4.000000,4.000000,4.000000,1.000000,4.000000,4.000000,4.000000,2.000000,25.000000
1602278660.776627,56.000000,0.000000,3906.666748,4635.384766,4160.512695,4244.102539,3976.923096,4617.436035,3951.794922,3873.333252,4296.410156,4043.589844,4225.641113,4143.589844,4083.076904,3973.846191,0.000000,4.000000,,,,0.000000,4.000000,4.000000,0.000000,4.000000,4.000000,4.000000,4.000000,4.000000,4.000000,1.000000,4.000000,4.000000,4.000000,2.000000,25.000000
1602278660.784351,57.000000,0.000000,3904.102539,4633.846191,4165.128418,4240.000000,3969.743652,4613.333496,3950.256348,3872.820557,4293.846191,4043.076904,4214.358887,4141.538574,4084.615479,3972.820557,0.000000,4.000000,,,,0.000000,4.000000,4.000000,0.000000,4.000000,4.000000,4.000000,4.000000,4.000000,4.000000,1.000000,4.000000,4.000000,4.000000,2.000000,25.000000
1602278660.792175,58.000000,0.000000,3904.615479,4629.743652,4168.205078,4241.025879,3973.846191,4617.436035,3955.897461,3870.769287,4290.256348,4042.051270,4209.230957,4138.461426,4083.076904,3975.384521,0.000000,4.000000,,,,0.000000,4.000000,4.000000,0.000000,4.000000,4.000000,4.000000,4.000000,4.000000,4.000000,1.000000,4.000000,4.000000,4.000000,2.000000,25.000000
1602278660.799899,59.000000,0.000000,3907.692383,4628.717773,4167.692383,4243.077148,3977.435791,4620.000000,3957.948730,3870.769287,4291.282227,4042.564209,4212.307617,4141.025879,4079.487061,3975.897461,0.000000,4.000000,,,,0.000000,4.000000,4.000000,0.000000,4.000000,4.000000,4.000000,4.000000,4.000000,4.000000,1.000000,4.000000,4.000000,4.000000,2.000000,25.000000
1602278660.807825,60.000000,0.000000,3897.948730,4624.615234,4164.615234,4235.897461,3974.871826,4613.333496,3952.307617,3869.230713,4287.692383,4040.512939,4209.743652,4136.410156,4074.358887,3968.718018,0.000000,4.000000,,,,0.000000,4.000000,4.000000,0.000000,4.000000,4.000000,4.000000,4.000000,4.000000,4.000000,1.000000,4.000000,4.000000,4.000000,2.000000,25.000000
1602278660.815651,61.000000,0.000000,3887.692383,4617.948730,4167.179688,4230.256348,3978.974365,4609.230957,3947.692383,3864.102539,4283.589844,4037.435791,4202.563965,4126.666504,4071.281982,3968.718018,0.000000,4.000000,,,,0.000000,4.000000,4.000000,0.000000,4.000000,4.000000,4.000000,4.000000,4.000000,4.000000,1.000000,4.000000,4.000000,4.000000,2.000000,25.000000
1602278660.823577,62.000000,0.000000,3891.281982,4611.794922,4165.641113,4231.794922,3976.410156,4607.692383,3945.641113,3862.051270,4288.717773,4037.948730,4194.871582,4124.102539,4065.641113,3969.743652,0.000000,4.000000,,,,0.000000,4.000000,4.000000,0.000000,4.000000,4.000000,4.000000,4.000000,4.000000,4.000000,1.000000,4.000000,4.000000,4.000000,2.000000,25.000000
1602278660.831403,63.000000,0.000000,3895.897461,4612.820313,4165.641113,4233.846191,3963.076904,4606.153809,3946.666748,3866.153809,4292.820313,4040.000000,4193.333496,4130.256348,4065.641113,3968.718018,0.000000,4.000000,,,,0.000000,4.000000,4.000000,0.000000,4.000000,4.000000,4.000000,4.000000,4.000000,4.000000,1.000000,4.000000,4.000000,4.000000,2.000000,25.000000
1602278660.839329,64.000000,0.000000,3893.846191,4623.077148,4161.025879,4235.897461,3965.641113,4612.820313,3954.871826,3873.846191,4297.436035,4041.025635,4202.563965,4132.820313,4080.512939,3966.666748,0.000000,4.000000,,,,0.000000,4.000000,4.000000,0.000000,4.000000,4.000000,4.000000,4.000000,4.000000,4.000000,1.000000,4.000000,4.000000,4.000000,2.000000,25.000000
1602278660.847155,65.000000,0.000000,3888.718018,4624.615234,4161.025879,4232.820313,3974.358887,4614.871582,3954.871826,3876.410156,4301.025879,4043.589844,4210.256348,4132.307617,4086.666748,3967.692383,425.000000,4.000000,,,,0.000000,4.000000,4.000000,0.000000,4.000000,4.000000,4.000000,4.000000,4.000000,4.000000,1.000000,4.000000,4.000000,4.000000,2.000000,25.000000
1602278660.855080,66.000000,0.000000,3890.769287,4616.410156,4169.743652,4222.563965,3969.230713,4608.717773,3950.256348,3872.307617,4298.461426,4045.128174,4208.205078,4134.358887,4081.025635,3973.333252,388.000000,4.000000,,,,0.000000,4.000000,4.000000,0.000000,4.000000,4.000000,4.000000,4.000000,4.000000,4.000000,1.000000,4.000000,4.000000,4.000000,2.000000,25.000000
1602278660.862906,67.000000,0.000000,3900.512939,4613.333496,4172.307617,4228.717773,3968.718018,4610.769043,3954.871826,3870.256348,4293.846191,4045.128174,4207.692383,4137.436035,4076.410156,3977.435791,444.000000,4.000000,,,,0.000000,4.000000,4.000000,0.000000,4.000000,4.000000,4.000000,4.000000,4.000000,4.000000,1.000000,4.000000,4.000000,4.000000,2.000000,25.000000
1602278660.870831,68.000000,0.000000,3906.153809,4612.307617,4167.179688,4236.410156,3973.846191,4603.589844,3944.615479,3864.102539,4285.641113,4041.025635,4203.589844,4133.846191,4071.281982,3974.871826,478.000000,4.000000,,,,0.000000,4.000000,4.000000,0.000000,4.000000,4.000000,4.000000,4.000000,4.000000,4.000000,1.000000,4.000000,4.000000,4.000000,2.000000,25.000000
1602278660.878656,69.000000,0.000000,3900.512939,4612.820313,4164.102539,4230.256348,3973.333252,4587.692383,3927.179443,3853.333252,4276.922852,4033.333252,4197.948730,4130.256348,4072.307617,3970.256348,416.000000,4.000000,,,,0.000000,4.000000,4.000000,0.000000,4.000000,4.000000,4.000000,4.000000,4.000000,4.000000,1.000000,4.000000,4.000000,4.000000,2.000000,25.000000
1602278660.886582,70.000000,0.000000,3903.589844,4625.128418,4169.743652,4235.897461,3976.410156,4600.512695,3944.102539,3856.410156,4278.461426,4036.410156,4208.205078,4136.410156,4088.718018,3975.897461,472.000000,4.000000,,,,0.000000,4.000000,4.000000,0.000000,4.000000,4.000000,4.000000,4.000000,4.000000,4.000000,1.000000,4.000000,4.000000,4.000000,2.000000,25.000000
1602278660.894407,71.000000,0.000000,3912.820557,4632.820313,4173.846191,4251.282227,3983.589844,4631.794922,3972.307617,3871.281982,4292.307617,4044.102539,4221.025879,4143.589844,4093.333252,3980.000000,394.000000,4.000000,,,,0.000000,4.000000,4.000000,0.000000,4.000000,4.000000,4.000000,4.000000,4.000000,4.000000,1.000000,4.000000,4.000000,4.000000,2.000000,25.000000
1602278660.902332,72.000000,0.000000,3909.230713,4621.538574,4172.820313,4247.692383,3983.076904,4633.846191,3971.281982,3876.923096,4304.615234,4042.564209,4214.871582,4142.051270,4086.666748,3977.435791,414.000000,4.000000,,,,0.000000,4.000000,4.000000,0.000000,4.000000,4.000000,4.000000,4.000000,4.000000,4.000000,1.000000,4.000000,4.000000,4.000000,2.000000,25.000000
1602278660.910157,73.000000,0.000000,3904.615479,4620.000000,4165.128418,4238.974121,3976.923096,4616.410156,3961.538574,3876.410156,4309.743652,4039.487061,4207.692383,4137.948730,4088.718018,3973.846191,45.000000,4.000000,,,,0.000000,4.000000,4.000000,0.000000,4.000000,4.000000,4.000000,4.000000,4.000000,4.000000,1.000000,4.000000,4.000000,4.000000,2.000000,25.000000
1602278660.917882,74.000000,0.000000,3910.769287,4629.230957,4168.205078,4249.230957,3969.743652,4613.846191,3960.000000,3875.384521,4308.205078,4041.538574,4208.717773,4141.025879,4089.743652,3980.000000,444.000000,4.000000,,,,0.000000,4.000000,4.000000,0.000000,4.000000,4.000000,4.000000,4.000000,4.000000,4.000000,1.000000,4.000000,4.000000,4.000000,2.000000,25.000000
1602278660.925706,75.000000,0.000000,3908.205078,4628.205078,4167.179688,4251.282227,3969.230713,4617.948730,3954.358887,3871.794922,4304.615234,4040.512939,4207.692383,4142.051270,4086.153809,3982.051270,235.000000,4.000000,,,,0.000000,4.000000,4.000000,0.000000,4.000000,4.000000,4.000000,4.000000,4.000000,4.000000,1.000000,4.000000,4.000000,4.000000,2.000000,25.000000
1602278660.933431,76.000000,0.000000,3898.461426,4624.615234,4162.563965,4239.487305,3981.025635,4612.307617,3950.769287,3872.307617,4299.487305,4038.974365,4206.153809,4139.487305,4081.538574,3973.846191,428.000000,4.000000,,,,0.000000,4.000000,4.000000,0.000000,4.000000,4.000000,4.000000,4.000000,4.000000,4.000000,1.000000,4.000000,4.000000,4.000000,2.000000,25.000000
1602278660.941256,77.000000,0.000000,3896.410156,4626.666504,4164.102539,4239.487305,3984.102539,4610.769043,3956.923096,3874.871826,4297.436035,4041.025635,4211.282227,4139.487305,4084.102539,3970.256348,355.000000,4.000000,,,,0.000000,4.000000,4.000000,0.000000,4.000000,4.000000,4.000000,4.000000,4.000000,4.000000,1.000000,4.000000,4.000000,4.000000,2.000000,25.000000
1602278660.948980,78.000000,0.000000,3898.974365,4623.589844,4169.230957,4243.589844,3973.846191,4614.871582,3960.000000,3873.846191,4303.589844,4041.538574,4215.384766,4139.487305,4096.410156,3973.846191,444.000000,4.000000,,,,0.000000,4.000000,4.000000,0.000000,4.000000,4.000000,4.000000,4.000000,4.000000,4.000000,1.000000,4.000000,4.000000,4.000000,2.000000,25.000000
1602278660.956805,79.000000,0.000000,3898.974365,4620.512695,4164.102539,4246.666504,3984.615479,4613.333496,3952.307617,3874.358887,4309.743652,4039.487061,4211.282227,4138.461426,4102.051270,3975.384521,235.000000,4.000000,,,,0.000000,4.000000,4.000000,0.000000,4.000000,4.000000,4.000000,4.000000,4.000000,4.000000,1.000000,4.000000,4.000000,4.000000,2.000000,25.000000
1602278660.964529,80.000000,0.000000,3898.974365,4623.589844,4164.102539,4252.820313,3996.410156,4607.692383,3946.153809,3870.256348,4298.461426,4038.974365,4207.179688,4140.000000,4090.769287,3976.923096,428.000000,4.000000,,,,0.000000,4.000000,4.000000,0.000000,4.000000,4.000000,4.000000,4.000000,4.000000,4.000000,1.000000,4.000000,4.000000,4.000000,2.000000,25.000000
1602278660.972354,81.000000,0.000000,3897.948730,4627.692383,4164.102539,4251.282227,3976.923096,4613.333496,3952.820557,3863.076904,4284.615234,4041.538574,4210.256348,4138.974121,4088.205078,3974.871826,355.000000,4.000000,,,,0.000000,4.000000,4.000000,0.000000,4.000000,4.000000,4.000000,4.000000,4.000000,4.000000,1.000000,4.000000,4.000000,4.000000,2.000000,25.000000
1602278660.980078,82.000000,0.000000,3902.051270,4631.794922,4163.589844,4244.615234,3964.102539,4624.102539,3958.974365,3866.666748,4294.871582,4040.000000,4213.846191,4137.948730,4091.794922,3975.384521,444.000000,4.000000,,,,0.000000,4.000000,4.000000,0.000000,4.000000,4.000000,4.000000,4.000000,4.000000,4.000000,1.000000,4.000000,4.000000,4.000000,2.000000,25.000000
1602278660.987902,83.000000,0.000000,3906.666748,4635.384766,4165.641113,4252.307617,3976.410156,4621.538574,3955.897461,3872.307617,4310.769043,4038.461426,4214.358887,4146.153809,4087.692383,3982.051270,235.000000,4.000000,,,,0.000000,4.000000,4.000000,0.000000,4.000000,4.000000,4.000000,4.000000,4.000000,4.000000,1.000000,4.000000,4.000000,4.000000,2.000000,25.000000
1602278660.995626,84.000000,0.000000,3906.153809,4633.846191,4167.179688,4257.948730,3977.948730,4611.794922,3950.769287,3872.820557,4309.230957,4043.589844,4218.974121,4153.333496,4096.410156,3984.615479,428.000000,4.000000,,,,0.000000,4.000000,4.000000,0.000000,4.000000,4.000000,4.000000,4.000000,4.000000,4.000000,1.000000,4.000000,4.000000,4.000000,2.000000,25.000000
1602278661.003450,85.000000,0.000000,3911.281982,4625.641113,4170.769043,4250.256348,3978.974365,4613.846191,3951.794922,3877.435791,4307.692383,4045.641113,4225.128418,4152.820313,4110.256348,3984.615479,355.000000,4.000000,,,,0.000000,4.000000,4.000000,0.000000,4.000000,4.000000,4.000000,4.000000,4.000000,4.000000,1.000000,4.000000,4.000000,4.000000,2.000000,25.000000
1602278661.011174,86.000000,0.000000,3914.358887,4626.666504,4172.307617,4244.615234,3988.205078,4622.563965,3955.897461,3880.000000,4315.384766,4041.538574,4222.051270,4151.794922,4104.102539,3985.641113,444.000000,4.000000,,,,0.000000,4.000000,4.000000,0.000000,4.000000,4.000000,4.000000,4.000000,4.000000,4.000000,1.000000,4.000000,4.000000,4.000000,2.000000,25.000000
1602278661.019099,87.000000,0.000000,3909.230713,4635.384766,4174.358887,4247.692383,3982.564209,4615.897461,3954.358887,3873.333252,4310.256348,4040.512939,4216.922852,4151.282227,4091.281982,3984.102539,235.000000,4.000000,,,,0.000000,4.000000,4.000000,0.000000,4.000000,4.000000,4.000000,4.000000,4.000000,4.000000,1.000000,4.000000,4.000000,4.000000,2.000000,25.000000
1602278661.026925,88.000000,0.000000,3908.205078,4630.256348,4168.717773,4255.897461,3974.358887,4610.769043,3955.384521,3874.871826,4299.487305,4044.615479,4218.974121,4147.692383,4093.846191,3979.487061,428.000000,4.000000,,,,0.000000,4.000000,4.000000,0.000000,4.000000,4.000000,4.000000,4.000000,4.000000,4.000000,1.000000,4.000000,4.000000,4.000000,2.000000,25.000000
1602278661.034850,89.000000,0.000000,3909.743652,4620.000000,4166.153809,4256.922852,3974.358887,4623.589844,3960.000000,3885.641113,4306.153809,4045.128174,4218.461426,4146.153809,4095.897461,3979.487061,355.000000,4.000000,,,,0.000000,4.000000,4.000000,0.000000,4.000000,4.000000,4.000000,4.000000,4.000000,4.000000,1.000000,4.000000,4.000000,4.000000,2.000000,25.000000
1602278661.042676,90.000000,0.000000,3901.538574,4622.051270,4166.153809,4247.692383,3976.410156,4625.128418,3953.333252,3887.179443,4314.871582,4043.589844,4210.769043,4143.589844,4085.128174,3975.384521,444.000000,4.000000,,,,0.000000,4.000000,4.000000,0.000000,4.000000,4.000000,4.000000,4.000000,4.000000,4.000000,1.000000,4.000000,4.000000,4.000000,2.000000,25.000000
1602278661.050601,91.000000,0.000000,3897.435791,4616.410156,4169.230957,4242.563965,3980.000000,4601.538574,3944.102539,3875.384521,4302.563965,4041.538574,4205.128418,4138.974121,4078.974365,3973.333252,235.000000,4.000000,,,,0.000000,4.000000,4.000000,0.000000,4.000000,4.000000,4.000000,4.000000,4.000000,4.000000,1.000000,4.000000,4.000000,4.000000,2.000000,25.000000
1602278661.058427,92.000000,0.000000,3907.179443,4609.230957,4163.077148,4252.820313,3983.589844,4595.897461,3948.205078,3867.179443,4291.794922,4041.538574,4211.282227,4144.615234,4086.153809,3977.948730,428.000000,4.000000,,,,0.000000,4.000000,4.000000,0.000000,4.000000,4.000000,4.000000,4.000000,4.000000,4.000000,1.000000,4.000000,4.000000,4.000000,2.000000,25.000000
1602278661.066352,93.000000,0.000000,3914.871826,4618.974121,4160.512695,4257.436035,3983.076904,4618.461426,3957.948730,3875.384521,4303.589844,4043.589844,4217.436035,4153.846191,4092.307617,3984.102539,355.000000,4.000000,,,,0.000000,4.000000,4.000000,0.000000,4.000000,4.000000,4.000000,4.000000,4.000000,4.000000,1.000000,4.000000,4.000000,4.000000,2.000000,25.000000
1602278661.074177,94.000000,0.000000,3909.230713,4627.692383,4160.000000,4248.205078,3978.974365,4634.871582,3964.102539,3885.128174,4314.871582,4041.538574,4212.307617,4149.230957,4089.743652,3980.512939,444.000000,4.000000,,,,0.000000,4.000000,4.000000,0.000000,4.000000,4.000000,4.000000,4.000000,4.000000,4.000000,1.000000,4.000000,4.000000,4.000000,2.000000,25.000000
1602278661.082102,95.000000,0.000000,3897.435791,4626.666504,4164.102539,4240.000000,3969.743652,4627.179688,3961.538574,3878.974365,4307.179688,4037.435791,4200.000000,4137.948730,4084.102539,3974.358887,235.000000,4.000000,,,,0.000000,4.000000,4.000000,0.000000,4.000000,4.000000,4.000000,4.000000,4.000000,4.000000,1.000000,4.000000,4.000000,4.000000,2.000000,25.000000
1602278661.089927,96.000000,0.000000,3894.871826,4626.666504,4167.692383,4243.077148,3965.641113,4612.820313,3953.846191,3870.256348,4298.974121,4037.948730,4197.436035,4136.410156,4081.538574,3973.333252,428.000000,4.000000,,,,0.000000,4.000000,4.000000,0.000000,4.000000,4.000000,4.000000,4.000000,4.000000,4.000000,1.000000,4.000000,4.000000,4.000000,2.000000,25.000000
1602278661.097652,97.000000,0.000000,3897.435791,4622.563965,4169.230957,4246.666504,3972.820557,4610.256348,3947.692383,3869.743652,4300.000000,4038.974365,4203.589844,4137.436035,4081.538574,3973.333252,355.000000,4.000000,,,,0.000000,4.000000,4.000000,0.000000,4.000000,4.000000,4.000000,4.000000,4.000000,4.000000,1.000000,4.000000,4.000000,4.000000,2.000000,25.000000
1602278661.105579,98.000000,0.000000,3893.333252,4608.205078,4166.153809,4244.102539,3972.307617,4608.205078,3941.538574,3862.564209,4291.794922,4038.461426,4200.512695,4132.820313,4073.333252,3968.718018,444.000000,4.000000,,,,0.000000,4.000000,4.000000,0.000000,4.000000,4.000000,4.000000,4.000000,4.000000,4.000000,1.000000,4.000000,4.000000,4.000000,2.000000,25.000000
1602278661.113406,99.000000,0.000000,3895.897461,4607.179688,4167.692383,4242.563965,3971.281982,4600.000000,3934.871826,3855.897461,4282.563965,4041.538574,4197.948730,4132.307617,4071.794922,3971.794922,235.000000,4.000000,,,,0.000000,4.000000,4.000000,0.000000,4.000000,4.000000,4.000000,4.000000,4.000000,4.000000,1.000000,4.000000,4.000000,4.000000,2.000000,25.000000
1602278661.121233,100.000000,0.000000,3906.153809,4624.102539,4170.769043,4245.128418,3978.974365,4601.538574,3940.512939,3860.512939,4292.820313,4043.076904,4206.666504,4140.512695,4087.692383,3980.000000,428.000000,4.000000,,,,0.000000,4.000000,4.000000,0.000000,4.000000,4.000000,4.000000,4.000000,4.000000,4.000000,1.000000,4.000000,4.000000,4.000000,2.000000,25.000000
1602278661.128958,101.000000,0.000000,3906.153809,4631.282227,4169.230957,4253.846191,3980.512939,4609.230957,3947.179443,3861.538574,4302.051270,4038.974365,4212.820313,4143.077148,4096.410156,3980.512939,355.000000,4.000000,,,,0.000000,4.000000,4.000000,0.000000,4.000000,4.000000,4.000000,4.000000,4.000000,4.000000,1.000000,4.000000,4.000000,4.000000,2.000000,25.000000
1602278661.136782,102.000000,0.000000,3901.025635,4624.102539,4168.205078,4255.897461,3980.000000,4602.563965,3938.461426,3858.974365,4295.384766,4037.948730,4209.743652,4137.948730,4089.743652,3978.461426,444.000000,4.000000,,,,0.000000,4.000000,4.000000,0.000000,4.000000,4.000000,4.000000,4.000000,4.000000,4.000000,1.000000,4.000000,4.000000,4.000000,2.000000,25.000000
1602278661.144507,103.000000,0.000000,3896.923096,4622.051270,4164.102539,4248.205078,3980.512939,4597.436035,3935.897461,3866.666748,4296.922852,4039.487061,4207.179688,4132.307617,4087.179443,3973.846191,235.000000,4.000000,,,,0.000000,4.000000,4.000000,0.000000,4.000000,4.000000,4.000000,4.000000,4.000000,4.000000,1.000000,4.000000,4.000000,4.000000,2.000000,25.000000
1602278661.152331,104.000000,0.000000,3893.846191,4621.025879,4166.666504,4247.692383,3973.846191,4614.358887,3954.358887,3876.923096,4306.666504,4039.487061,4208.205078,4134.358887,4088.205078,3973.846191,428.000000,4.000000,,,,0.000000,4.000000,4.000000,0.000000,4.000000,4.000000,4.000000,4.000000,4.000000,4.000000,1.000000,4.000000,4.000000,4.000000,2.000000,25.000000
1602278661.160055,105.000000,0.000000,3895.897461,4612.307617,4167.692383,4250.256348,3971.281982,4627.692383,3966.666748,3881.025635,4306.153809,4042.564209,4209.230957,4138.461426,4087.179443,3975.897461,355.000000,4.000000,,,,0.000000,4.000000,4.000000,0.000000,4.000000,4.000000,4.000000,4.000000,4.000000,4.000000,1.000000,4.000000,4.000000,4.000000,2.000000,25.000000
1602278661.167879,106.000000,0.000000,3898.974365,4605.128418,4167.179688,4242.051270,3970.769287,4621.538574,3960.000000,3876.923096,4302.563965,4042.051270,4203.589844,4136.922852,4082.564209,3973.333252,444.000000,4.000000,,,,0.000000,4.000000,4.000000,0.000000,4.000000,4.000000,4.000000,4.000000,4.000000,4.000000,1.000000,4.000000,4.000000,4.000000,2.000000,25.000000
1602278661.175603,107.000000,0.000000,3889.743652,4603.077148,4158.461426,4230.769043,3962.564209,4612.307617,3953.846191,3871.281982,4301.538574,4033.846191,4191.282227,4130.256348,4069.230713,3966.666748,235.000000,4.000000,,,,0.000000,4.000000,4.000000,0.000000,4.000000,4.000000,4.000000,4.000000,4.000000,4.000000,1.000000,4.000000,4.000000,4.000000,2.000000,25.000000
1602278661.183427,108.000000,0.000000,3888.205078,4604.102539,4163.589844,4232.820313,3961.538574,4608.717773,3948.718018,3872.820557,4300.000000,4030.769287,4188.717773,4129.743652,4065.641113,3971.794922,428.000000,4.000000,,,,0.000000,4.000000,4.000000,0.000000,4.000000,4.000000,4.000000,4.000000,4.000000,4.000000,1.000000,4.000000,4.000000,4.000000,2.000000,25.000000
1602278661.191151,109.000000,0.000000,3900.512939,4616.410156,4171.794922,4242.051270,3975.384521,4610.256348,3947.692383,3877.435791,4301.538574,4037.435791,4205.641113,4138.461426,4088.205078,3980.000000,355.000000,4.000000,,,,0.000000,4.000000,4.000000,0.000000,4.000000,4.000000,4.000000,4.000000,4.000000,4.000000,1.000000,4.000000,4.000000,4.000000,2.000000,25.000000
1602278661.199077,110.000000,0.000000,3906.153809,4624.102539,4171.794922,4247.179688,3972.307617,4613.846191,3954.871826,3870.769287,4301.025879,4043.589844,4216.410156,4144.102539,4101.538574,3978.461426,444.000000,4.000000,,,,0.000000,4.000000,4.000000,0.000000,4.000000,4.000000,4.000000,4.000000,4.000000,4.000000,1.000000,4.000000,4.000000,4.000000,2.000000,25.000000
1602278661.206903,111.000000,0.000000,3903.076904,4624.102539,4163.589844,4252.307617,3963.589844,4614.358887,3954.871826,3866.153809,4298.461426,4040.000000,4210.256348,4140.512695,4087.179443,3974.358887,235.000000,4.000000,,,,0.000000,4.000000,4.000000,0.000000,4.000000,4.000000,4.000000,4.000000,4.000000,4.000000,1.000000,4.000000,4.000000,4.000000,2.000000,25.000000
1602278661.214828,112.000000,0.000000,3905.641113,4625.128418,4165.641113,4261.538574,3974.871826,4612.307617,3946.153809,3865.128174,4298.974121,4036.923096,4208.717773,4139.487305,4077.948730,3976.923096,428.000000,4.000000,,,,0.000000,4.000000,4.000000,0.000000,4.000000,4.000000,4.000000,4.000000,4.000000,4.000000,1.000000,4.000000,4.000000,4.000000,2.000000,25.000000
1602278661.222654,113.000000,0.000000,3903.076904,4609.230957,4167.179688,4255.384766,3976.410156,4610.256348,3942.564209,3857.435791,4292.820313,4035.897461,4209.743652,4138.461426,4077.435791,3973.846191,355.000000,4.000000,,,,0.000000,4.000000,4.000000,0.000000,4.000000,4.000000,4.000000,4.000000,4.000000,4.000000,1.000000,4.000000,4.000000,4.000000,2.000000,25.000000
1602278661.230579,114.000000,0.000000,3888.718018,4589.743652,4162.563965,4235.384766,3961.538574,4602.051270,3936.410156,3852.820557,4281.538574,4036.410156,4196.410156,4129.743652,4069.230713,3967.179443,444.000000,4.000000,,,,0.000000,4.000000,4.000000,0.000000,4.000000,4.000000,4.000000,4.000000,4.000000,4.000000,1.000000,4.000000,4.000000,4.000000,2.000000,25.000000
1602278661.238405,115.000000,0.000000,3886.666748,4598.974121,4164.615234,4233.846191,3964.615479,4600.512695,3934.358887,3858.461426,4283.077148,4036.410156,4191.282227,4128.205078,4068.205078,3968.205078,235.000000,4.000000,,,,0.000000,4.000000,4.000000,0.000000,4.000000,4.000000,4.000000,4.000000,4.000000,4.000000,1.000000,4.000000,4.000000,4.000000,2.000000,25.000000
1602278661.246330,116.000000,0.000000,3902.564209,4620.000000,4169.230957,4249.743652,3973.846191,4607.179688,3943.589844,3865.128174,4295.384766,4033.846191,4206.666504,4136.922852,4077.435791,3971.794922,428.000000,4.000000,,,,0.000000,4.000000,4.000000,0.000000,4.000000,4.000000,4.000000,4.000000,4.000000,4.000000,1.000000,4.000000,4.000000,4.000000,2.000000,25.000000
1602278661.254155,117.000000,0.000000,3906.153809,4619.487305,4167.692383,4251.794922,3962.051270,4601.538574,3944.102539,3866.153809,4301.025879,4034.871826,4205.128418,4136.922852,4077.435791,3970.769287,355.000000,4.000000,,,,0.000000,4.000000,4.000000,0.000000,4.000000,4.000000,4.000000,4.000000,4.000000,4.000000,1.000000,4.000000,4.000000,4.000000,2.000000,25.000000
1602278661.262080,118.000000,0.000000,3900.512939,4616.922852,4164.615234,4245.128418,3962.564209,4604.102539,3946.153809,3872.307617,4307.179688,4040.512939,4201.025879,4136.410156,4082.051270,3972.820557,444.000000,4.000000,,,,0.000000,4.000000,4.000000,0.000000,4.000000,4.000000,4.000000,4.000000,4.000000,4.000000,1.000000,4.000000,4.000000,4.000000,2.000000,25.000000
1602278661.269904,119.000000,0.000000,3906.666748,4621.025879,4166.153809,4253.333496,3982.051270,4619.487305,3957.948730,3881.538574,4314.871582,4042.051270,4215.384766,4146.666504,4095.897461,3977.948730,235.000000,4.000000,,,,0.000000,4.000000,4.000000,0.000000,4.000000,4.000000,4.000000,4.000000,4.000000,4.000000,1.000000,4.000000,4.000000,4.000000,2.000000,25.000000
1602278661.277629,120.000000,0.000000,3912.820557,4616.410156,4166.666504,4264.615234,3981.025635,4621.025879,3960.000000,3875.897461,4308.717773,4041.538574,4216.410156,4147.692383,4092.820557,3975.897461,428.000000,4.000000,,,,0.000000,4.000000,4.000000,0.000000,4.000000,4.000000,4.000000,4.000000,4.000000,4.000000,1.000000,4.000000,4.000000,4.000000,2.000000,25.000000
1602278661.285454,121.000000,0.000000,3905.641113,4615.897461,4170.769043,4257.948730,3963.589844,4610.256348,3950.769287,3863.076904,4294.871582,4041.025635,4202.051270,4138.461426,4079.487061,3974.358887,355.000000,4.000000,,,,0.000000,4.000000,4.000000,0.000000,4.000000,4.000000,4.000000,4.000000,4.000000,4.000000,1.000000,4.000000,4.000000,4.000000,2.000000,25.000000
1602278661.293179,122.000000,0.000000,3897.435791,4614.358887,4170.769043,4245.128418,3958.974365,4602.051270,3937.948730,3857.435791,4290.256348,4035.384521,4191.794922,4131.282227,4075.384521,3970.256348,444.000000,4.000000,,,,0.000000,4.000000,4.000000,0.000000,4.000000,4.000000,4.000000,4.000000,4.000000,4.000000,1.000000,4.000000,4.000000,4.000000,2.000000,25.000000
1602278661.301004,123.000000,0.000000,3897.948730,4603.589844,4169.230957,4245.128418,3963.076904,4595.897461,3929.230713,3853.333252,4290.256348,4029.230713,4188.205078,4132.307617,4077.948730,3971.281982,235.000000,4.000000,,,,0.000000,4.000000,4.000000,0.000000,4.000000,4.000000,4.000000,4.000000,4.000000,4.000000,1.000000,4.000000,4.000000,4.000000,2.000000,25.000000
1602278661.308729,124.000000,0.000000,3902.051270,4603.077148,4164.102539,4252.820313,3968.205078,4606.153809,3943.589844,3857.948730,4298.974121,4031.281982,4200.000000,4140.000000,4084.615479,3978.461426,428.000000,4.000000,,,,0.000000,4.000000,4.000000,0.000000,4.000000,4.000000,4.000000,4.000000,4.000000,4.000000,1.000000,4.000000,4.000000,4.000000,2.000000,25.000000
1602278661.316553,125.000000,0.000000,3905.128174,4612.820313,4168.205078,4256.410156,3967.692383,4623.077148,3960.000000,3872.820557,4312.307617,4031.281982,4219.487305,4147.692383,4083.076904,3984.615479,355.000000,4.000000,,,,0.000000,4.000000,4.000000,0.000000,4.000000,4.000000,4.000000,4.000000,4.000000,4.000000,1.000000,4.000000,4.000000,4.000000,2.000000,25.000000
1602278661.324277,126.000000,0.000000,3902.051270,4617.948730,4166.153809,4253.333496,3961.025635,4615.897461,3951.794922,3874.871826,4306.666504,4031.794922,4214.358887,4145.128418,4076.923096,3978.974365,444.000000,4.000000,,,,0.000000,4.000000,4.000000,0.000000,4.000000,4.000000,4.000000,4.000000,4.000000,4.000000,1.000000,4.000000,4.000000,4.000000,2.000000,25.000000
1602278661.332102,127.000000,0.000000,3901.025635,4626.153809,4160.000000,4254.871582,3971.281982,4608.717773,3949.230713,3870.769287,4298.461426,4040.512939,4206.153809,4142.051270,4087.179443,3974.358887,235.000000,4.000000,,,,0.000000,4.000000,4.000000,0.000000,4.000000,4.000000,4.000000,4.000000,4.000000,4.000000,1.000000,4.000000,4.000000,4.000000,2.000000,25.000000
1602278661.339826,128.000000,0.000000,3905.128174,4626.666504,4155.897461,4264.102539,3984.102539,4614.358887,3961.025635,3875.897461,4308.717773,4043.076904,4214.871582,4145.641113,4098.974121,3977.948730,428.000000,4.000000,,,,0.000000,4.000000,4.000000,0.000000,4.000000,4.000000,4.000000,4.000000,4.000000,4.000000,1.000000,4.000000,4.000000,4.000000,2.000000,25.000000
1602278661.347650,0.000000,0.000000,3903.076904,4606.153809,4167.179688,4258.974121,3972.820557,4609.230957,3955.897461,3873.333252,4308.205078,4035.384521,4208.717773,4144.102539,4087.692383,3980.000000,0.000000,4.000000,,,,0.000000,4.000000,4.000000,0.000000,4.000000,4.000000,4.000000,4.000000,4.000000,4.000000,1.000000,4.000000,4.000000,4.000000,2.000000,25.000000
1602278661.355374,1.000000,0.000000,3895.384521,4605.128418,4171.794922,4244.615234,3960.512939,4602.563965,3942.051270,3864.102539,4293.333496,4033.846191,4196.922852,4137.436035,4079.487061,3975.897461,425.000000,4.000000,,,,0.000000,4.000000,4.000000,0.000000,4.000000,4.000000,4.000000,4.000000,4.000000,4.000000,1.000000,4.000000,4.000000,4.000000,2.000000,25.000000
1602278661.363198,2.000000,0.000000,3890.256348,4621.025879,4162.563965,4243.589844,3961.025635,4612.820313,3945.128174,3869.743652,4296.410156,4042.564209,4205.641113,4133.846191,4083.589844,3971.794922,388.000000,4.000000,,,,0.000000,4.000000,4.000000,0.000000,4.000000,4.000000,4.000000,4.000000,4.000000,4.000000,1.000000,4.000000,4.000000,4.000000,2.000000,25.000000
1602278661.370922,3.000000,0.000000,3895.384521,4613.846191,4161.025879,4249.230957,3963.589844,4622.563965,3957.435791,3878.974365,4308.205078,4040.512939,4216.410156,4136.922852,4077.948730,3975.384521,444.000000,4.000000,,,,0.000000,4.000000,4.000000,0.000000,4.000000,4.000000,4.000000,4.000000,4.000000,4.000000,1.000000,4.000000,4.000000,4.000000,2.000000,25.000000
1602278661.378746,4.000000,0.000000,3897.948730,4602.051270,4166.666504,4241.025879,3962.564209,4606.153809,3949.230713,3868.205078,4300.512695,4031.281982,4210.256348,4135.384766,4065.641113,3974.871826,478.000000,4.000000,,,,0.000000,4.000000,4.000000,0.000000,4.000000,4.000000,4.000000,4.000000,4.000000,4.000000,1.000000,4.000000,4.000000,4.000000,2.000000,25.000000
1602278661.386469,5.000000,0.000000,3897.435791,4613.333496,4168.205078,4232.307617,3966.153809,4596.410156,3936.923096,3857.948730,4288.717773,4031.794922,4203.589844,4130.769043,4071.281982,3970.769287,416.000000,4.000000,,,,0.000000,4.000000,4.000000,0.000000,4.000000,4.000000,4.000000,4.000000,4.000000,4.000000,1.000000,4.000000,4.000000,4.000000,2.000000,25.000000
1602278661.394395,6.000000,0.000000,3902.051270,4627.692383,4167.692383,4244.102539,3978.974365,4617.948730,3949.230713,3867.179443,4294.358887,4036.923096,4208.205078,4134.871582,4082.051270,3974.871826,472.000000,4.000000,,,,0.000000,4.000000,4.000000,0.000000,4.000000,4.000000,4.000000,4.000000,4.000000,4.000000,1.000000,4.000000,4.000000,4.000000,2.000000,25.000000
1602278661.402221,7.000000,0.000000,3907.692383,4625.641113,4171.794922,4253.846191,3982.051270,4625.641113,3956.923096,3872.307617,4292.307617,4036.923096,4210.256348,4139.487305,4076.923096,3978.461426,394.000000,4.000000,,,,0.000000,4.000000,4.000000,0.000000,4.000000,4.000000,4.000000,4.000000,4.000000,4.000000,1.000000,4.000000,4.000000,4.000000,2.000000,25.000000
1602278661.410146,8.000000,0.000000,3904.615479,4615.384766,4171.794922,4245.128418,3967.179443,4605.641113,3945.128174,3861.538574,4277.948730,4033.846191,4211.282227,4134.871582,4072.820557,3970.769287,414.000000,4.000000,,,,0.000000,4.000000,4.000000,0.000000,4.000000,4.000000,4.000000,4.000000,4.000000,4.000000,1.000000,4.000000,4.000000,4.000000,2.000000,25.000000
1602278661.417971,9.000000,0.000000,3906.666748,4612.307617,4173.333496,4243.077148,3961.025635,4601.538574,3941.538574,3861.538574,4280.512695,4035.384521,4216.922852,4135.897461,4082.051270,3973.333252,45.000000,4.000000,,,,0.000000,4.000000,4.000000,0.000000,4.000000,4.000000,4.000000,4.000000,4.000000,4.000000,1.000000,4.000000,4.000000,4.000000,2.000000,25.000000
1602278661.425896,10.000000,0.000000,3914.358887,4625.128418,4163.589844,4250.256348,3969.230713,4615.897461,3950.256348,3871.794922,4299.487305,4037.948730,4222.563965,4141.538574,4092.820557,3980.000000,444.000000,4.000000,,,,0.000000,4.000000,4.000000,0.000000,4.000000,4.000000,4.000000,4.000000,4.000000,4.000000,1.000000,4.000000,4.000000,4.000000,2.000000,25.000000
1602278661.433721,11.000000,0.000000,3909.743652,4630.256348,4161.025879,4242.051270,3967.692383,4616.922852,3952.820557,3870.769287,4301.538574,4038.974365,4225.128418,4139.487305,4092.307617,3975.897461,234.000000,4.000000,,,,0.000000,4.000000,4.000000,0.000000,4.000000,4.000000,4.000000,4.000000,4.000000,4.000000,1.000000,4.000000,4.000000,4.000000,2.000000,25.000000
1602278661.441646,12.000000,0.000000,3904.615479,4622.051270,4167.179688,4233.333496,3971.281982,4612.307617,3951.794922,3874.871826,4295.897461,4040.512939,4224.615234,4137.436035,4083.589844,3972.820557,428.000000,4.000000,,,,0.000000,4.000000,4.000000,0.000000,4.000000,4.000000,4.000000,4.000000,4.000000,4.000000,1.000000,4.000000,4.000000,4.000000,2.000000,25.000000
1602278661.449472,13.000000,0.000000,3909.743652,4622.051270,4169.743652,4240.000000,3986.153809,4613.333496,3951.794922,3883.589844,4300.000000,4041.025635,4217.436035,4138.974121,4075.897461,3974.871826,355.000000,4.000000,,,,0.000000,4.000000,4.000000,0.000000,4.000000,4.000000,4.000000,4.000000,4.000000,4.000000,1.000000,4.000000,4.000000,4.000000,2.000000,25.000000
1602278661.457296,14.000000,0.000000,3909.230713,4620.000000,4161.025879,4243.589844,3984.615479,4610.256348,3952.307617,3875.384521,4298.974121,4038.461426,4207.179688,4134.358887,4077.435791,3968.205078,444.000000,4.000000,,,,0.000000,4.000000,4.000000,0.000000,4.000000,4.000000,4.000000,4.000000,4.000000,4.000000,1.000000,4.000000,4.000000,4.000000,2.000000,25.000000
1602278661.465121,15.000000,0.000000,3904.102539,4615.897461,4166.153809,4238.974121,3973.846191,4607.179688,3953.846191,3867.179443,4297.948730,4035.384521,4206.666504,4132.307617,4081.538574,3968.718018,234.000000,4.000000,,,,0.000000,4.000000,4.000000,0.000000,4.000000,4.000000,4.000000,4.000000,4.000000,4.000000,1.000000,4.000000,4.000000,4.000000,2.000000,25.000000
1602278661.472846,16.000000,0.000000,3907.179443,4624.102539,4168.717773,4238.974121,3977.948730,4613.846191,3956.410156,3878.461426,4304.615234,4038.974365,4218.974121,4137.948730,4086.153809,3977.435791,0.000000,4.000000,,,,0.000000,4.000000,4.000000,0.000000,4.000000,4.000000,4.000000,4.000000,4.000000,4.000000,1.000000,4.000000,4.000000,4.000000,2.000000,25.000000
1602278661.480671,17.000000,0.000000,3912.820557,4625.641113,4164.102539,4239.487305,3983.076904,4620.512695,3957.435791,3883.076904,4306.666504,4040.512939,4223.589844,4141.025879,4094.358887,3980.000000,0.000000,4.000000,,,,0.000000,4.000000,4.000000,0.000000,4.000000,4.000000,4.000000,4.000000,4.000000,4.000000,1.000000,4.000000,4.000000,4.000000,2.000000,25.000000
1602278661.488395,18.000000,0.000000,3914.871826,4615.897461,4167.179688,4241.025879,3968.718018,4612.820313,3952.820557,3873.846191,4302.051270,4039.487061,4214.871582,4143.077148,4099.487305,3981.025635,0.000000,4.000000,,,,0.000000,4.000000,4.000000,0.000000,4.000000,4.000000,4.000000,4.000000,4.000000,4.000000,1.000000,4.000000,4.000000,4.000000,2.000000,25.000000
1602278661.496220,19.000000,0.000000,3912.820557,4622.051270,4168.717773,4242.051270,3960.000000,4606.153809,3949.230713,3868.718018,4301.025879,4041.538574,4210.769043,4145.128418,4097.948730,3980.512939,0.000000,4.000000,,,,0.000000,4.000000,4.000000,0.000000,4.000000,4.000000,4.000000,4.000000,4.000000,4.000000,1.000000,4.000000,4.000000,4.000000,2.000000,25.000000
1602278661.503944,20.000000,0.000000,3911.281982,4633.333496,4166.153809,4241.025879,3973.333252,4610.256348,3951.281982,3865.641113,4300.512695,4041.538574,4215.897461,4142.051270,4090.769287,3976.410156,0.000000,4.000000,,,,0.000000,4.000000,4.000000,0.000000,4.000000,4.000000,4.000000,4.000000,4.000000,4.000000,1.000000,4.000000,4.000000,4.000000,2.000000,25.000000
1602278661.511769,21.000000,0.000000,3909.230713,4628.205078,4169.230957,4242.051270,3977.948730,4612.307617,3950.256348,3861.538574,4295.384766,4042.564209,4211.794922,4134.358887,4083.076904,3973.333252,0.000000,4.000000,,,,0.000000,4.000000,4.000000,0.000000,4.000000,4.000000,4.000000,4.000000,4.000000,4.000000,1.000000,4.000000,4.000000,4.000000,2.000000,25.000000
1602278661.519493,22.000000,0.000000,3907.692383,4619.487305,4172.820313,4242.051270,3969.230713,4610.256348,3949.230713,3867.179443,4292.820313,4040.512939,4196.410156,4128.717773,4077.435791,3974.358887,0.000000,4.000000,,,,0.000000,4.000000,4.000000,0.000000,4.000000,4.000000,4.000000,4.000000,4.000000,4.000000,1.000000,4.000000,4.000000,4.000000,2.000000,25.000000
1602278661.527317,23.000000,0.000000,3909.230713,4622.051270,4166.666504,4244.615234,3980.512939,4615.897461,3955.384521,3878.461426,4298.461426,4034.871826,4190.256348,4125.128418,4073.846191,3973.846191,0.000000,4.000000,,,,0.000000,4.000000,4.000000,0.000000,4.000000,4.000000,4.000000,4.000000,4.000000,4.000000,1.000000,4.000000,4.000000,4.000000,2.000000,25.000000
1602278661.535041,24.000000,0.000000,3910.256348,4626.666504,4167.692383,4248.717773,3988.718018,4617.436035,3955.384521,3878.461426,4297.948730,4033.333252,4195.897461,4125.641113,4072.820557,3973.846191,0.000000,4.000000,,,,0.000000,4.000000,4.000000,0.000000,4.000000,4.000000,4.000000,4.000000,4.000000,4.000000,1.000000,4.000000,4.000000,4.000000,2.000000,25.000000
1602278661.542866,25.000000,0.000000,3907.692383,4623.589844,4167.692383,4246.153809,3971.794922,4610.769043,3948.718018,3870.769287,4291.282227,4035.897461,4201.538574,4129.743652,4079.487061,3973.333252,0.000000,4.000000,,,,0.000000,4.000000,4.000000,0.000000,4.000000,4.000000,4.000000,4.000000,4.000000,4.000000,1.000000,4.000000,4.000000,4.000000,2.000000,25.000000
1602278661.550590,26.000000,0.000000,3910.769287,4617.948730,4167.179688,4244.615234,3961.025635,4608.205078,3947.179443,3868.718018,4293.333496,4035.897461,4204.102539,4135.384766,4082.051270,3977.435791,0.000000,4.000000,,,,0.000000,4.000000,4.000000,0.000000,4.000000,4.000000,4.000000,4.000000,4.000000,4.000000,1.000000,4.000000,4.000000,4.000000,2.000000,25.000000
1602278661.558414,27.000000,0.000000,3923.076904,4622.563965,4166.666504,4254.871582,3977.435791,4608.205078,3945.128174,3869.230713,4299.487305,4033.846191,4205.128418,4137.948730,4077.948730,3978.974365,0.000000,4.000000,,,,0.000000,4.000000,4.000000,0.000000,4.000000,4.000000,4.000000,4.000000,4.000000,4.000000,1.000000,4.000000,4.000000,4.000000,2.000000,25.000000
1602278661.566137,28.000000,0.000000,3929.743652,4638.974121,4168.717773,4262.563965,3988.205078,4606.666504,3938.461426,3868.718018,4296.922852,4034.871826,4209.230957,4143.077148,4089.230713,3981.025635,0.000000,4.000000,,,,0.000000,4.000000,4.000000,0.000000,4.000000,4.000000,4.000000,4.000000,4.000000,4.000000,1.000000,4.000000,4.000000,4.000000,2.000000,25.000000
1602278661.574063,29.000000,0.000000,3924.615479,4646.666504,4164.102539,4257.436035,3978.974365,4608.205078,3940.512939,3867.179443,4292.820313,4037.435791,4214.871582,4146.153809,4103.589844,3982.564209,0.000000,4.000000,,,,0.000000,4.000000,4.000000,0.000000,4.000000,4.000000,4.000000,4.000000,4.000000,4.000000,1.000000,4.000000,4.000000,4.000000,2.000000,25.000000
1602278661.581888,30.000000,0.000000,3918.974365,4635.384766,4168.205078,4254.358887,3977.948730,4615.897461,3954.871826,3870.256348,4298.461426,4038.461426,4215.384766,4142.051270,4096.410156,3982.051270,0.000000,4.000000,,,,0.000000,4.000000,4.000000,0.000000,4.000000,4.000000,4.000000,4.000000,4.000000,4.000000,1.000000,4.000000,4.000000,4.000000,2.000000,25.000000
1602278661.589814,31.000000,0.000000,3915.897461,4627.179688,4169.230957,4256.410156,3986.153809,4621.025879,3964.102539,3877.435791,4308.205078,4036.410156,4214.358887,4139.487305,4091.794922,3976.410156,0.000000,4.000000,,,,0.000000,4.000000,4.000000,0.000000,4.000000,4.000000,4.000000,4.000000,4.000000,4.000000,1.000000,4.000000,4.000000,4.000000,2.000000,25.000000
1602278661.597639,32.000000,0.000000,3911.794922,4635.384766,4165.641113,4252.820313,3979.487061,4618.461426,3959.487061,3880.512939,4310.256348,4037.435791,4214.871582,4141.538574,4103.077148,3976.410156,0.000000,4.000000,,,,0.000000,4.000000,4.000000,0.000000,4.000000,4.000000,4.000000,4.000000,4.000000,4.000000,1.000000,4.000000,4.000000,4.000000,2.000000,25.000000
1602278661.605564,33.000000,0.000000,3908.205078,4637.436035,4165.128418,4251.282227,3973.846191,4615.897461,3954.358887,3874.871826,4301.025879,4038.974365,4210.256348,4138.974121,4095.384521,3980.000000,0.000000,4.000000,,,,0.000000,4.000000,4.000000,0.000000,4.000000,4.000000,4.000000,4.000000,4.000000,4.000000,1.000000,4.000000,4.000000,4.000000,2.000000,25.000000
1602278661.613390,34.000000,0.000000,3907.692383,4624.102539,4171.282227,4254.358887,3979.487061,4616.922852,3955.384521,3870.256348,4294.358887,4033.846191,4203.077148,4134.871582,4075.384521,3980.512939,0.000000,4.000000,,,,0.000000,4.000000,4.000000,0.000000,4.000000,4.000000,4.000000,4.000000,4.000000,4.000000,1.000000,4.000000,4.000000,4.000000,2.000000,25.000000
1602278661.621315,35.000000,0.000000,3905.128174,4614.358887,4170.256348,4251.794922,3977.948730,4616.922852,3955.384521,3874.358887,4301.538574,4035.384521,4203.589844,4136.922852,4080.000000,3978.461426,0.000000,4.000000,,,,0.000000,4.000000,4.000000,0.000000,4.000000,4.000000,4.000000,4.000000,4.000000,4.000000,1.000000,4.000000,4.000000,4.000000,2.000000,25.000000
1602278661.629140,36.000000,0.000000,3900.000000,4620.000000,4162.563965,4247.692383,3968.718018,4613.846191,3951.794922,3875.897461,4305.128418,4043.076904,4207.179688,4134.358887,4093.333252,3974.358887,0.000000,4.000000,,,,0.000000,4.000000,4.000000,0.000000,4.000000,4.000000,4.000000,4.000000,4.000000,4.000000,1.000000,4.000000,4.000000,4.000000,2.000000,25.000000
1602278661.637065,37.000000,0.000000,3900.000000,4632.820313,4167.179688,4247.692383,3971.281982,4613.846191,3947.692383,3872.307617,4298.974121,4041.538574,4207.692383,4132.307617,4093.333252,3975.384521,0.000000,4.000000,,,,0.000000,4.000000,4.000000,0.000000,4.000000,4.000000,4.000000,4.000000,4.000000,4.000000,1.000000,4.000000,4.000000,4.000000,2.000000,25.000000
1602278661.644890,38.000000,0.000000,3902.051270,4634.358887,4170.769043,4245.128418,3983.076904,4611.282227,3947.179443,3870.769287,4299.487305,4036.410156,4207.692383,4136.410156,4090.769287,3975.897461,0.000000,4.000000,,,,0.000000,4.000000,4.000000,0.000000,4.000000,4.000000,4.000000,4.000000,4.000000,4.000000,1.000000,4.000000,4.000000,4.000000,2.000000,25.000000
1602278661.652614,39.000000,0.000000,3904.615479,4625.641113,4170.769043,4247.179688,3990.256348,4602.563965,3945.641113,3873.846191,4306.153809,4038.461426,4213.846191,4143.589844,4096.922852,3977.948730,0.000000,4.000000,,,,0.000000,4.000000,4.000000,0.000000,4.000000,4.000000,4.000000,4.000000,4.000000,4.000000,1.000000,4.000000,4.000000,4.000000,2.000000,25.000000
1602278661.660439,40.000000,0.000000,3906.666748,4631.794922,4168.205078,4258.974121,3986.153809,4609.743652,3946.666748,3881.025635,4310.256348,4042.051270,4221.538574,4146.153809,4104.615234,3981.025635,0.000000,4.000000,,,,0.000000,4.000000,4.000000,0.000000,4.000000,4.000000,4.000000,4.000000,4.000000,4.000000,1.000000,4.000000,4.000000,4.000000,2.000000,25.000000
1602278661.668164,41.000000,0.000000,3906.153809,4637.948730,4168.717773,4257.948730,3982.564209,4623.077148,3951.281982,3881.538574,4307.692383,4038.461426,4218.461426,4144.102539,4098.461426,3981.025635,0.000000,4.000000,,,,0.000000,4.000000,4.000000,0.000000,4.000000,4.000000,4.000000,4.000000,4.000000,4.000000,1.000000,4.000000,4.000000,4.000000,2.000000,25.000000
1602278661.675988,42.000000,0.000000,3904.102539,4632.820313,4163.077148,4247.179688,3987.179443,4622.563965,3954.358887,3873.333252,4305.641113,4037.435791,4213.846191,4142.563965,4090.256348,3975.897461,0.000000,4.000000,,,,0.000000,4.000000,4.000000,0.000000,4.000000,4.000000,4.000000,4.000000,4.000000,4.000000,1.000000,4.000000,4.000000,4.000000,2.000000,25.000000
1602278661.683713,43.000000,0.000000,3903.076904,4634.358887,4166.153809,4251.794922,3985.128174,4618.974121,3955.897461,3870.769287,4306.153809,4041.025635,4217.436035,4146.666504,4100.000000,3979.487061,0.000000,4.000000,,,,0.000000,4.000000,4.000000,0.000000,4.000000,4.000000,4.000000,4.000000,4.000000,4.000000,1.000000,4.000000,4.000000,4.000000,2.000000,25.000000
1602278661.691537,44.000000,0.000000,3897.948730,4637.436035,4168.717773,4257.948730,3975.384521,4621.025879,3954.358887,3873.846191,4302.563965,4040.000000,4211.282227,4145.128418,4105.641113,3981.538574,0.000000,4.000000,,,,0.000000,4.000000,4.000000,0.000000,4.000000,4.000000,4.000000,4.000000,4.000000,4.000000,1.000000,4.000000,4.000000,4.000000,2.000000,25.000000
1602278661.699262,45.000000,0.000000,3889.230713,4624.615234,4164.102539,4247.692383,3974.358887,4613.846191,3949.743652,3871.281982,4295.384766,4035.384521,4194.871582,4133.846191,4086.666748,3970.769287,0.000000,4.000000,,,,0.000000,4.000000,4.000000,0.000000,4.000000,4.000000,4.000000,4.000000,4.000000,4.000000,1.000000,4.000000,4.000000,4.000000,2.000000,25.000000
1602278661.707086,46.000000,0.000000,3886.666748,4619.487305,4161.025879,4241.025879,3982.051270,4609.743652,3951.794922,3869.230713,4294.871582,4033.333252,4188.717773,4127.179688,4071.794922,3962.564209,0.000000,4.000000,,,,0.000000,4.000000,4.000000,0.000000,4.000000,4.000000,4.000000,4.000000,4.000000,4.000000,1.000000,4.000000,4.000000,4.000000,2.000000,25.000000
1602278661.714810,47.000000,0.000000,3890.256348,4630.769043,4168.717773,4240.000000,3980.512939,4620.000000,3957.435791,3874.358887,4299.487305,4034.871826,4189.743652,4127.179688,4071.794922,3970.769287,0.000000,4.000000,,,,0.000000,4.000000,4.000000,0.000000,4.000000,4.000000,4.000000,4.000000,4.000000,4.000000,1.000000,4.000000,4.000000,4.000000,2.000000,25.000000
1602278661.722634,48.000000,0.000000,3894.871826,4633.333496,4166.153809,4242.563965,3973.333252,4624.102539,3961.538574,3880.512939,4300.000000,4034.358887,4190.769043,4128.717773,4073.333252,3974.358887,0.000000,4.000000,,,,0.000000,4.000000,4.000000,0.000000,4.000000,4.000000,4.000000,4.000000,4.000000,4.000000,1.000000,4.000000,4.000000,4.000000,2.000000,25.000000
1602278661.730358,49.000000,0.000000,3897.948730,4620.512695,4162.563965,4252.307617,3978.974365,4621.025879,3968.205078,3884.615479,4305.641113,4032.820557,4196.922852,4134.358887,4081.025635,3971.794922,0.000000,4.000000,,,,0.000000,4.000000,4.000000,0.000000,4.000000,4.000000,4.000000,4.000000,4.000000,4.000000,1.000000,4.000000,4.000000,4.000000,2.000000,25.000000
1602278661.738283,50.000000,0.000000,3895.384521,4616.410156,4165.641113,4252.307617,3995.384521,4624.615234,3969.743652,3886.666748,4312.820313,4036.410156,4205.128418,4141.025879,4089.743652,3975.384521,0.000000,4.000000,,,,0.000000,4.000000,4.000000,0.000000,4.000000,4.000000,4.000000,4.000000,4.000000,4.000000,1.000000,4.000000,4.000000,4.000000,2.000000,25.000000
1602278661.746109,51.000000,0.000000,3887.692383,4628.717773,4168.205078,4245.641113,3991.281982,4625.128418,3957.435791,3884.102539,4311.794922,4039.487061,4209.743652,4142.563965,4090.256348,3979.487061,0.000000,4.000000,,,,0.000000,4.000000,4.000000,0.000000,4.000000,4.000000,4.000000,4.000000,4.000000,4.000000,1.000000,4.000000,4.000000,4.000000,2.000000,25.000000
1602278661.754035,52.000000,0.000000,3890.256348,4636.922852,4170.256348,4250.256348,3975.384521,4618.461426,3955.384521,3876.923096,4311.282227,4039.487061,4211.282227,4141.538574,4094.358887,3978.461426,0.000000,4.000000,,,,0.000000,4.000000,4.000000,0.000000,4.000000,4.000000,4.000000,4.000000,4.000000,4.000000,1.000000,4.000000,4.000000,4.000000,2.000000,25.000000
1602278661.761860,53.000000,0.000000,3895.897461,4630.769043,4168.205078,4257.948730,3979.487061,4618.461426,3968.205078,3872.307617,4313.333496,4039.487061,4209.743652,4140.000000,4101.538574,3974.358887,0.000000,4.000000,,,,0.000000,4.000000,4.000000,0.000000,4.000000,4.000000,4.000000,4.000000,4.000000,4.000000,1.000000,4.000000,4.000000,4.000000,2.000000,25.000000
1602278661.769786,54.000000,0.000000,3896.410156,4629.743652,4168.205078,4252.820313,3987.179443,4624.615234,3967.692383,3874.871826,4309.743652,4040.000000,4208.205078,4138.461426,4097.948730,3974.358887,0.000000,4.000000,,,,0.000000,4.000000,4.000000,0.000000,4.000000,4.000000,4.000000,4.000000,4.000000,4.000000,1.000000,4.000000,4.000000,4.000000,2.000000,25.000000
1602278661.777611,55.000000,0.000000,3896.410156,4639.487305,4168.205078,4249.230957,3987.692383,4626.153809,3962.564209,3880.000000,4301.025879,4041.538574,4211.794922,4138.974121,4092.307617,3974.358887,0.000000,4.000000,,,,0.000000,4.000000,4.000000,0.000000,4.000000,4.000000,4.000000,4.000000,4.000000,4.000000,1.000000,4.000000,4.000000,4.000000,2.000000,25.000000
1602278661.785536,56.000000,0.000000,3894.358887,4636.922852,4171.282227,4252.820313,3980.512939,4623.589844,3964.102539,3881.538574,4301.025879,4042.051270,4210.256348,4138.461426,4090.769287,3975.384521,0.000000,4.000000,,,,0.000000,4.000000,4.000000,0.000000,4.000000,4.000000,4.000000,4.000000,4.000000,4.000000,1.000000,4.000000,4.000000,4.000000,2.000000,25.000000
1602278661.793361,57.000000,0.000000,3888.718018,4624.615234,4168.717773,4253.846191,3976.923096,4622.051270,3962.564209,3881.025635,4308.717773,4036.923096,4204.615234,4139.487305,4091.281982,3977.948730,0.000000,4.000000,,,,0.000000,4.000000,4.000000,0.000000,4.000000,4.000000,4.000000,4.000000,4.000000,4.000000,1.000000,4.000000,4.000000,4.000000,2.000000,25.000000
1602278661.801286,58.000000,0.000000,3894.871826,4627.179688,4170.256348,4252.307617,3992.307617,4621.538574,3962.564209,3883.589844,4308.205078,4033.846191,4209.743652,4149.743652,4096.410156,3983.076904,0.000000,4.000000,,,,0.000000,4.000000,4.000000,0.000000,4.000000,4.000000,4.000000,4.000000,4.000000,4.000000,1.000000,4.000000,4.000000,4.000000,2.000000,25.000000
1602278661.809111,59.000000,0.000000,3900.512939,4639.487305,4165.641113,4251.794922,4002.051270,4621.025879,3966.666748,3887.179443,4304.615234,4036.923096,4215.384766,4151.282227,4104.615234,3979.487061,0.000000,4.000000,,,,0.000000,4.000000,4.000000,0.000000,4.000000,4.000000,4.000000,4.000000,4.000000,4.000000,1.000000,4.000000,4.000000,4.000000,2.000000,25.000000
1602278661.817036,60.000000,0.000000,3894.358887,4635.384766,4166.153809,4254.358887,3984.102539,4617.436035,3960.512939,3880.000000,4304.615234,4035.384521,4207.692383,4140.000000,4100.000000,3975.897461,0.000000,4.000000,,,,0.000000,4.000000,4.000000,0.000000,4.000000,4.000000,4.000000,4.000000,4.000000,4.000000,1.000000,4.000000,4.000000,4.000000,2.000000,25.000000
1602278661.824861,61.000000,0.000000,3894.358887,4623.077148,4167.692383,4254.871582,3970.769287,4613.846191,3952.307617,3871.794922,4302.051270,4032.820557,4204.102539,4136.410156,4089.230713,3978.974365,0.000000,4.000000,,,,0.000000,4.000000,4.000000,0.000000,4.000000,4.000000,4.000000,4.000000,4.000000,4.000000,1.000000,4.000000,4.000000,4.000000,2.000000,25.000000
1602278661.832586,62.000000,0.000000,3900.000000,4624.615234,4164.615234,4252.307617,3981.025635,4622.563965,3961.538574,3879.487061,4302.563965,4037.948730,4208.717773,4143.077148,4088.718018,3978.974365,0.000000,4.000000,,,,0.000000,4.000000,4.000000,0.000000,4.000000,4.000000,4.000000,4.000000,4.000000,4.000000,1.000000,4.000000,4.000000,4.000000,2.000000,25.000000
1602278661.840411,63.000000,0.000000,3891.794922,4627.692383,4158.974121,4256.410156,3983.589844,4633.846191,3973.333252,3890.256348,4311.794922,4036.923096,4206.153809,4140.512695,4092.820557,3971.794922,0.000000,4.000000,,,,0.000000,4.000000,4.000000,0.000000,4.000000,4.000000,4.000000,4.000000,4.000000,4.000000,1.000000,4.000000,4.000000,4.000000,2.000000,25.000000
1602278661.848135,64.000000,0.000000,3883.589844,4616.922852,4163.589844,4252.820313,3972.820557,4623.077148,3966.153809,3880.512939,4310.769043,4032.820557,4199.487305,4133.846191,4083.589844,3971.281982,0.000000,4.000000,,,,0.000000,4.000000,4.000000,0.000000,4.000000,4.000000,4.000000,4.000000,4.000000,4.000000,1.000000,4.000000,4.000000,4.000000,2.000000,25.000000
1602278661.855959,65.000000,0.000000,3885.641113,4617.436035,4164.615234,4239.487305,3967.692383,4610.256348,3951.281982,3872.307617,4302.051270,4034.871826,4207.179688,4140.000000,4078.974365,3976.410156,425.000000,4.000000,,,,0.000000,4.000000,4.000000,0.000000,4.000000,4.000000,4.000000,4.000000,4.000000,4.000000,1.000000,4.000000,4.000000,4.000000,2.000000,25.000000
1602278661.863684,66.000000,0.000000,3889.743652,4635.384766,4166.153809,4244.102539,3973.333252,4613.333496,3947.692383,3878.974365,4299.487305,4036.410156,4217.436035,4149.743652,4095.384521,3979.487061,388.000000,4.000000,,,,0.000000,4.000000,4.000000,0.000000,4.000000,4.000000,4.000000,4.000000,4.000000,4.000000,1.000000,4.000000,4.000000,4.000000,2.000000,25.000000
1602278661.871508,67.000000,0.000000,3892.307617,4638.461426,4169.743652,4253.333496,3983.589844,4610.769043,3952.820557,3877.435791,4295.384766,4034.871826,4216.922852,4149.230957,4106.666504,3980.512939,444.000000,4.000000,,,,0.000000,4.000000,4.000000,0.000000,4.000000,4.000000,4.000000,4.000000,4.000000,4.000000,1.000000,4.000000,4.000000,4.000000,2.000000,25.000000
1602278661.879233,68.000000,0.000000,3895.897461,4625.128418,4167.179688,4247.179688,3981.025635,4608.717773,3958.974365,3871.794922,4296.410156,4038.461426,4215.384766,4142.563965,4098.974121,3980.000000,478.000000,4.000000,,,,0.000000,4.000000,4.000000,0.000000,4.000000,4.000000,4.000000,4.000000,4.000000,4.000000,1.000000,4.000000,4.000000,4.000000,2.000000,25.000000
1602278661.887057,69.000000,0.000000,3899.487061,4613.846191,4165.641113,4249.230957,3969.743652,4623.077148,3962.564209,3876.410156,4304.102539,4042.051270,4213.333496,4141.025879,4092.307617,3977.948730,416.000000,4.000000,,,,0.000000,4.000000,4.000000,0.000000,4.000000,4.000000,4.000000,4.000000,4.000000,4.000000,1.000000,4.000000,4.000000,4.000000,2.000000,25.000000
1602278661.894781,70.000000,0.000000,3901.538574,4609.743652,4171.282227,4263.589844,3967.179443,4623.077148,3954.358887,3876.410156,4300.512695,4036.410156,4205.641113,4140.512695,4094.358887,3975.384521,472.000000,4.000000,,,,0.000000,4.000000,4.000000,0.000000,4.000000,4.000000,4.000000,4.000000,4.000000,4.000000,1.000000,4.000000,4.000000,4.000000,2.000000,25.000000
1602278661.902605,71.000000,0.000000,3901.025635,4622.051270,4172.820313,4259.487305,3976.410156,4607.692383,3947.179443,3872.307617,4293.846191,4033.333252,4205.641113,4143.589844,4084.615479,3979.487061,394.000000,4.000000,,,,0.000000,4.000000,4.000000,0.000000,4.000000,4.000000,4.000000,4.000000,4.000000,4.000000,1.000000,4.000000,4.000000,4.000000,2.000000,25.000000
1602278661.910329,72.000000,0.000000,3901.025635,4640.000000,4167.179688,4248.717773,3988.718018,4614.358887,3953.846191,3878.974365,4300.512695,4036.410156,4216.410156,4150.256348,4077.948730,3981.025635,414.000000,4.000000,,,,0.000000,4.000000,4.000000,0.000000,4.000000,4.000000,4.000000,4.000000,4.000000,4.000000,1.000000,4.000000,4.000000,4.000000,2.000000,25.000000
1602278661.918255,73.000000,0.000000,3896.410156,4636.922852,4171.282227,4250.769043,3981.538574,4626.666504,3959.487061,3884.102539,4306.666504,4037.948730,4213.846191,4148.205078,4090.769287,3978.974365,45.000000,4.000000,,,,0.000000,4.000000,4.000000,0.000000,4.000000,4.000000,4.000000,4.000000,4.000000,4.000000,1.000000,4.000000,4.000000,4.000000,2.000000,25.000000
1602278661.926080,74.000000,0.000000,3885.128174,4627.179688,4168.717773,4253.333496,3973.333252,4620.512695,3957.948730,3883.589844,4305.641113,4038.461426,4206.666504,4138.461426,4103.589844,3975.897461,445.000000,4.000000,,,,0.000000,4.000000,4.000000,0.000000,4.000000,4.000000,4.000000,4.000000,4.000000,4.000000,1.000000,4.000000,4.000000,4.000000,2.000000,25.000000
1602278661.934006,75.000000,0.000000,3881.538574,4618.461426,4164.615234,4252.307617,3981.538574,4618.461426,3958.974365,3887.692383,4309.230957,4040.000000,4211.282227,4136.410156,4101.538574,3974.358887,235.000000,4.000000,,,,0.000000,4.000000,4.000000,0.000000,4.000000,4.000000,4.000000,4.000000,4.000000,4.000000,1.000000,4.000000,4.000000,4.000000,2.000000,25.000000
1602278661.941831,76.000000,0.000000,3887.179443,4608.717773,4163.589844,4252.820313,3983.589844,4624.615234,3960.000000,3889.743652,4316.410156,4041.025635,4212.820313,4137.948730,4097.948730,3974.358887,428.000000,4.000000,,,,0.000000,4.000000,4.000000,0.000000,4.000000,4.000000,4.000000,4.000000,4.000000,4.000000,1.000000,4.000000,4.000000,4.000000,2.000000,25.000000
1602278661.949757,77.000000,0.000000,3887.692383,4615.384766,4164.615234,4252.820313,3970.256348,4624.102539,3958.461426,3885.641113,4316.922852,4042.564209,4208.717773,4137.436035,4099.487305,3975.384521,355.000000,4.000000,,,,0.000000,4.000000,4.000000,0.000000,4.000000,4.000000,4.000000,4.000000,4.000000,4.000000,1.000000,4.000000,4.000000,4.000000,2.000000,25.000000
1602278661.957582,78.000000,0.000000,3883.589844,4625.641113,4158.974121,4249.230957,3966.666748,4618.461426,3960.000000,3885.641113,4313.333496,4043.589844,4209.743652,4139.487305,4093.846191,3971.794922,445.000000,4.000000,,,,0.000000,4.000000,4.000000,0.000000,4.000000,4.000000,4.000000,4.000000,4.000000,4.000000,1.000000,4.000000,4.000000,4.000000,2.000000,25.000000
1602278661.965507,79.000000,0.000000,3884.615479,4613.846191,4163.589844,4246.666504,3981.538574,4618.461426,3963.589844,3891.794922,4310.256348,4040.512939,4208.205078,4142.563965,4084.102539,3972.307617,235.000000,4.000000,,,,0.000000,4.000000,4.000000,0.000000,4.000000,4.000000,4.000000,4.000000,4.000000,4.000000,1.000000,4.000000,4.000000,4.000000,2.000000,25.000000
1602278661.973332,80.000000,0.000000,3888.205078,4605.641113,4163.077148,4249.743652,3986.153809,4624.102539,3964.615479,3892.820557,4309.230957,4040.000000,4204.102539,4142.563965,4078.461426,3977.435791,428.000000,4.000000,,,,0.000000,4.000000,4.000000,0.000000,4.000000,4.000000,4.000000,4.000000,4.000000,4.000000,1.000000,4.000000,4.000000,4.000000,2.000000,25.000000
1602278661.981257,81.000000,0.000000,3887.692383,4613.846191,4161.538574,4251.794922,3974.871826,4617.436035,3957.435791,3881.538574,4304.102539,4042.051270,4206.666504,4141.025879,4081.025635,3977.948730,355.000000,4.000000,,,,0.000000,4.000000,4.000000,0.000000,4.000000,4.000000,4.000000,4.000000,4.000000,4.000000,1.000000,4.000000,4.000000,4.000000,2.000000,25.000000
1602278661.989082,82.000000,0.000000,3887.179443,4617.948730,4167.692383,4251.282227,3972.820557,4608.717773,3950.769287,3878.974365,4302.051270,4038.974365,4210.769043,4143.589844,4095.384521,3975.384521,445.000000,4.000000,,,,0.000000,4.000000,4.000000,0.000000,4.000000,4.000000,4.000000,4.000000,4.000000,4.000000,1.000000,4.000000,4.000000,4.000000,2.000000,25.000000
1602278661.997007,83.000000,0.000000,3891.281982,4622.563965,4168.717773,4252.820313,3984.615479,4619.487305,3956.923096,3889.743652,4310.769043,4034.871826,4212.820313,4146.153809,4098.461426,3977.435791,235.000000,4.000000,,,,0.000000,4.000000,4.000000,0.000000,4.000000,4.000000,4.000000,4.000000,4.000000,4.000000,1.000000,4.000000,4.000000,4.000000,2.000000,25.000000
1602278662.004832,84.000000,0.000000,3890.769287,4622.051270,4163.077148,4250.256348,3982.564209,4624.615234,3958.461426,3883.076904,4307.692383,4034.358887,4210.256348,4141.538574,4082.051270,3976.923096,428.000000,4.000000,,,,0.000000,4.000000,4.000000,0.000000,4.000000,4.000000,4.000000,4.000000,4.000000,4.000000,1.000000,4.000000,4.000000,4.000000,2.000000,25.000000
1602278662.012557,85.000000,0.000000,3881.538574,4607.692383,4166.666504,4242.051270,3973.333252,4608.205078,3947.692383,3868.205078,4295.384766,4034.871826,4206.153809,4133.333496,4074.871826,3970.769287,355.000000,4.000000,,,,0.000000,4.000000,4.000000,0.000000,4.000000,4.000000,4.000000,4.000000,4.000000,4.000000,1.000000,4.000000,4.000000,4.000000,2.000000,25.000000
1602278662.020382,86.000000,0.000000,3881.538574,4607.179688,4171.282227,4239.487305,3977.948730,4611.282227,3948.205078,3876.923096,4302.563965,4035.897461,4212.307617,4138.461426,4089.230713,3971.794922,445.000000,4.000000,,,,0.000000,4.000000,4.000000,0.000000,4.000000,4.000000,4.000000,4.000000,4.000000,4.000000,1.000000,4.000000,4.000000,4.000000,2.000000,25.000000
1602278662.028107,87.000000,0.000000,3889.743652,4622.563965,4167.179688,4246.153809,3975.897461,4631.794922,3966.153809,3890.769287,4314.358887,4041.025635,4220.512695,4149.230957,4096.922852,3974.358887,235.000000,4.000000,,,,0.000000,4.000000,4.000000,0.000000,4.000000,4.000000,4.000000,4.000000,4.000000,4.000000,1.000000,4.000000,4.000000,4.000000,2.000000,25.000000
1602278662.035931,88.000000,0.000000,3890.256348,4626.153809,4169.743652,4250.769043,3975.384521,4631.282227,3972.307617,3885.641113,4308.205078,4046.153809,4225.128418,4150.256348,4090.769287,3975.384521,428.000000,4.000000,,,,0.000000,4.000000,4.000000,0.000000,4.000000,4.000000,4.000000,4.000000,4.000000,4.000000,1.000000,4.000000,4.000000,4.000000,2.000000,25.000000
1602278662.043656,89.000000,0.000000,3886.153809,4624.615234,4170.769043,4247.692383,3992.307617,4621.025879,3960.000000,3883.589844,4307.179688,4046.153809,4226.666504,4147.179688,4090.256348,3974.871826,355.000000,4.000000,,,,0.000000,4.000000,4.000000,0.000000,4.000000,4.000000,4.000000,4.000000,4.000000,4.000000,1.000000,4.000000,4.000000,4.000000,2.000000,25.000000
1602278662.051480,90.000000,0.000000,3892.307617,4628.205078,4173.333496,4249.230957,3987.692383,4618.974121,3953.333252,3890.256348,4314.358887,4042.564209,4225.641113,4148.205078,4095.384521,3977.435791,445.000000,4.000000,,,,0.000000,4.000000,4.000000,0.000000,4.000000,4.000000,4.000000,4.000000,4.000000,4.000000,1.000000,4.000000,4.000000,4.000000,2.000000,25.000000
1602278662.059205,91.000000,0.000000,3898.461426,4626.666504,4167.692383,4254.358887,3966.666748,4617.948730,3962.051270,3889.743652,4311.794922,4042.051270,4226.153809,4148.717773,4097.948730,3977.435791,235.000000,4.000000,,,,0.000000,4.000000,4.000000,0.000000,4.000000,4.000000,4.000000,4.000000,4.000000,4.000000,1.000000,4.000000,4.000000,4.000000,2.000000,25.000000
1602278662.067131,92.000000,0.000000,3896.410156,4635.384766,4162.051270,4255.384766,3976.923096,4620.000000,3968.205078,3887.692383,4306.666504,4043.076904,4230.256348,4149.230957,4100.000000,3978.461426,428.000000,4.000000,,,,0.000000,4.000000,4.000000,0.000000,4.000000,4.000000,4.000000,4.000000,4.000000,4.000000,1.000000,4.000000,4.000000,4.000000,2.000000,25.000000
1602278662.074957,93.000000,0.000000,3896.410156,4646.153809,4161.538574,4256.922852,4000.512939,4625.128418,3966.666748,3893.846191,4309.743652,4043.589844,4235.897461,4152.307617,4103.589844,3979.487061,355.000000,4.000000,,,,0.000000,4.000000,4.000000,0.000000,4.000000,4.000000,4.000000,4.000000,4.000000,4.000000,1.000000,4.000000,4.000000,4.000000,2.000000,25.000000
1602278662.082783,94.000000,0.000000,3894.871826,4627.179688,4165.641113,4249.743652,3994.871826,4625.128418,3966.153809,3895.897461,4310.769043,4044.615479,4232.820313,4146.153809,4100.000000,3978.461426,445.000000,4.000000,,,,0.000000,4.000000,4.000000,0.000000,4.000000,4.000000,4.000000,4.000000,4.000000,4.000000,1.000000,4.000000,4.000000,4.000000,2.000000,25.000000
1602278662.090507,95.000000,0.000000,3887.692383,4606.666504,4162.563965,4238.974121,3982.564209,4624.615234,3970.769287,3893.846191,4308.717773,4048.205078,4223.589844,4135.384766,4089.230713,3975.897461,235.000000,4.000000,,,,0.000000,4.000000,4.000000,0.000000,4.000000,4.000000,4.000000,4.000000,4.000000,4.000000,1.000000,4.000000,4.000000,4.000000,2.000000,25.000000
1602278662.098330,96.000000,0.000000,3878.974365,4614.358887,4162.563965,4232.820313,3979.487061,4623.077148,3973.333252,3893.333252,4308.205078,4046.666748,4220.512695,4134.871582,4081.538574,3973.846191,428.000000,4.000000,,,,0.000000,4.000000,4.000000,0.000000,4.000000,4.000000,4.000000,4.000000,4.000000,4.000000,1.000000,4.000000,4.000000,4.000000,2.000000,25.000000
1602278662.106054,97.000000,0.000000,3873.846191,4620.000000,4163.589844,4226.153809,3970.256348,4615.384766,3967.179443,3888.718018,4306.666504,4042.051270,4222.051270,4137.948730,4085.641113,3972.307617,355.000000,4.000000,,,,0.000000,4.000000,4.000000,0.000000,4.000000,4.000000,4.000000,4.000000,4.000000,4.000000,1.000000,4.000000,4.000000,4.000000,2.000000,25.000000
1602278662.113980,98.000000,0.000000,3877.435791,4618.461426,4168.205078,4222.051270,3963.589844,4608.717773,3959.487061,3884.102539,4299.487305,4041.538574,4221.025879,4138.974121,4097.948730,3975.897461,445.000000,4.000000,,,,0.000000,4.000000,4.000000,0.000000,4.000000,4.000000,4.000000,4.000000,4.000000,4.000000,1.000000,4.000000,4.000000,4.000000,2.000000,25.000000
1602278662.121805,99.000000,0.000000,3891.794922,4621.538574,4173.846191,4234.871582,3980.000000,4611.794922,3961.025635,3885.641113,4294.358887,4044.615479,4227.692383,4147.179688,4104.615234,3984.102539,235.000000,4.000000,,,,0.000000,4.000000,4.000000,0.000000,4.000000,4.000000,4.000000,4.000000,4.000000,4.000000,1.000000,4.000000,4.000000,4.000000,2.000000,25.000000
1602278662.129731,100.000000,0.000000,3897.948730,4618.461426,4168.717773,4244.102539,3990.769287,4617.436035,3961.025635,3886.666748,4301.538574,4046.666748,4237.436035,4155.384766,4101.025879,3986.666748,428.000000,4.000000,,,,0.000000,4.000000,4.000000,0.000000,4.000000,4.000000,4.000000,4.000000,4.000000,4.000000,1.000000,4.000000,4.000000,4.000000,2.000000,25.000000
1602278662.137556,101.000000,0.000000,3893.846191,4617.948730,4165.128418,4237.948730,3974.871826,4618.461426,3954.871826,3883.076904,4308.205078,4044.615479,4232.307617,4151.794922,4100.512695,3983.589844,355.000000,4.000000,,,,0.000000,4.000000,4.000000,0.000000,4.000000,4.000000,4.000000,4.000000,4.000000,4.000000,1.000000,4.000000,4.000000,4.000000,2.000000,25.000000
1602278662.145481,102.000000,0.000000,3895.897461,4637.436035,4167.179688,4244.102539,3972.307617,4622.051270,3956.923096,3886.153809,4310.256348,4043.076904,4232.307617,4151.282227,4109.230957,3982.564209,445.000000,4.000000,,,,0.000000,4.000000,4.000000,0.000000,4.000000,4.000000,4.000000,4.000000,4.000000,4.000000,1.000000,4.000000,4.000000,4.000000,2.000000,25.000000
1602278662.153307,103.000000,0.000000,3900.000000,4646.153809,4168.717773,4248.205078,3987.692383,4621.538574,3960.000000,3888.205078,4312.820313,4042.051270,4238.461426,4153.846191,4110.256348,3982.051270,235.000000,4.000000,,,,0.000000,4.000000,4.000000,0.000000,4.000000,4.000000,4.000000,4.000000,4.000000,4.000000,1.000000,4.000000,4.000000,4.000000,2.000000,25.000000
1602278662.161232,104.000000,0.000000,3895.384521,4627.692383,4165.641113,4233.333496,3984.102539,4614.871582,3956.410156,3884.102539,4308.205078,4041.025635,4227.179688,4142.563965,4102.051270,3977.435791,428.000000,4.000000,,,,0.000000,4.000000,4.000000,0.000000,4.000000,4.000000,4.000000,4.000000,4.000000,4.000000,1.000000,4.000000,4.000000,4.000000,2.000000,25.000000
1602278662.169057,105.000000,0.000000,3887.692383,4608.205078,4167.692383,4223.589844,3968.205078,4611.282227,3955.897461,3881.025635,4297.436035,4041.538574,4217.436035,4134.358887,4095.384521,3977.948730,355.000000,4.000000,,,,0.000000,4.000000,4.000000,0.000000,4.000000,4.000000,4.000000,4.000000,4.000000,4.000000,1.000000,4.000000,4.000000,4.000000,2.000000,25.000000
1602278662.176982,106.000000,0.000000,3881.025635,4606.153809,4164.102539,4229.230957,3973.846191,4615.897461,3958.461426,3880.000000,4294.358887,4043.076904,4222.051270,4136.410156,4087.179443,3977.948730,445.000000,4.000000,,,,0.000000,4.000000,4.000000,0.000000,4.000000,4.000000,4.000000,4.000000,4.000000,4.000000,1.000000,4.000000,4.000000,4.000000,2.000000,25.000000
1602278662.184807,107.000000,0.000000,3875.897461,4607.179688,4162.563965,4224.102539,3974.358887,4613.846191,3953.333252,3873.333252,4294.871582,4043.076904,4213.846191,4131.282227,4073.333252,3972.820557,235.000000,4.000000,,,,0.000000,4.000000,4.000000,0.000000,4.000000,4.000000,4.000000,4.000000,4.000000,4.000000,1.000000,4.000000,4.000000,4.000000,2.000000,25.000000
1602278662.192731,108.000000,0.000000,3873.846191,4608.205078,4161.025879,4214.871582,3963.589844,4607.179688,3952.820557,3869.743652,4292.307617,4040.000000,4201.025879,4123.077148,4073.846191,3967.179443,428.000000,4.000000,,,,0.000000,4.000000,4.000000,0.000000,4.000000,4.000000,4.000000,4.000000,4.000000,4.000000,1.000000,4.000000,4.000000,4.000000,2.000000,25.000000
1602278662.200556,109.000000,0.000000,3875.384521,4614.358887,4162.563965,4228.717773,3972.820557,4611.282227,3961.025635,3874.358887,4295.897461,4040.512939,4207.179688,4129.743652,4093.846191,3969.230713,355.000000,4.000000,,,,0.000000,4.000000,4.000000,0.000000,4.000000,4.000000,4.000000,4.000000,4.000000,4.000000,1.000000,4.000000,4.000000,4.000000,2.000000,25.000000
1602278662.208281,110.000000,0.000000,3875.384521,4613.333496,4157.948730,4236.922852,3980.512939,4617.436035,3959.487061,3875.384521,4298.974121,4042.564209,4215.897461,4136.922852,4101.538574,3970.769287,445.000000,4.000000,,,,0.000000,4.000000,4.000000,0.000000,4.000000,4.000000,4.000000,4.000000,4.000000,4.000000,1.000000,4.000000,4.000000,4.000000,2.000000,25.000000
1602278662.216106,111.000000,0.000000,3881.538574,4606.666504,4162.051270,4231.282227,3974.871826,4614.358887,3956.923096,3871.281982,4297.436035,4041.538574,4213.333496,4136.922852,4085.128174,3974.871826,235.000000,4.000000,,,,0.000000,4.000000,4.000000,0.000000,4.000000,4.000000,4.000000,4.000000,4.000000,4.000000,1.000000,4.000000,4.000000,4.000000,2.000000,25.000000
1602278662.223830,112.000000,0.000000,3892.820557,4621.025879,4167.179688,4242.051270,3985.128174,4614.358887,3967.179443,3878.974365,4304.615234,4040.000000,4217.948730,4144.615234,4084.615479,3978.461426,428.000000,4.000000,,,,0.000000,4.000000,4.000000,0.000000,4.000000,4.000000,4.000000,4.000000,4.000000,4.000000,1.000000,4.000000,4.000000,4.000000,2.000000,25.000000
1602278662.231654,113.000000,0.000000,3896.410156,4638.974121,4166.666504,4252.820313,3993.333252,4615.897461,3965.641113,3883.589844,4307.692383,4042.051270,4222.563965,4150.769043,4097.948730,3978.461426,355.000000,4.000000,,,,0.000000,4.000000,4.000000,0.000000,4.000000,4.000000,4.000000,4.000000,4.000000,4.000000,1.000000,4.000000,4.000000,4.000000,2.000000,25.000000
1602278662.239379,114.000000,0.000000,3888.205078,4625.641113,4161.538574,4244.102539,3980.000000,4615.897461,3952.820557,3877.435791,4304.102539,4042.564209,4217.948730,4146.666504,4094.358887,3980.000000,445.000000,4.000000,,,,0.000000,4.000000,4.000000,0.000000,4.000000,4.000000,4.000000,4.000000,4.000000,4.000000,1.000000,4.000000,4.000000,4.000000,2.000000,25.000000
1602278662.247203,115.000000,0.000000,3886.666748,4609.230957,4166.666504,4240.512695,3978.461426,4623.077148,3963.076904,3884.102539,4311.282227,4042.051270,4220.512695,4149.230957,4089.230713,3985.128174,235.000000,4.000000,,,,0.000000,4.000000,4.000000,0.000000,4.000000,4.000000,4.000000,4.000000,4.000000,4.000000,1.000000,4.000000,4.000000,4.000000,2.000000,25.000000
1602278662.254927,116.000000,0.000000,3890.256348,4615.384766,4172.820313,4243.589844,3979.487061,4625.128418,3973.846191,3894.871826,4318.974121,4042.051270,4226.153809,4155.384766,4095.897461,3986.153809,428.000000,4.000000,,,,0.000000,4.000000,4.000000,0.000000,4.000000,4.000000,4.000000,4.000000,4.000000,4.000000,1.000000,4.000000,4.000000,4.000000,2.000000,25.000000
1602278662.262751,117.000000,0.000000,3889.230713,4627.692383,4168.205078,4244.102539,3966.666748,4617.948730,3962.564209,3890.256348,4316.410156,4041.538574,4223.589844,4152.307617,4102.051270,3980.000000,355.000000,4.000000,,,,0.000000,4.000000,4.000000,0.000000,4.000000,4.000000,4.000000,4.000000,4.000000,4.000000,1.000000,4.000000,4.000000,4.000000,2.000000,25.000000
