title:your record name, start timestamp:1600982328.276267, stop timestamp:1600982343.424512, headset type:EPOC, headset serial:81487574, headset firmware:1e00, subject name:alzaabi.su, channels:38, sampling rate:128, samples:1938      , version:2.0
Timestamp,EEG.Counter,EEG.Interpolated,EEG.AF3,EEG.F7,EEG.F3,EEG.FC5,EEG.T7,EEG.P7,EEG.O1,EEG.O2,EEG.P8,EEG.T8,EEG.FC6,EEG.F4,EEG.F8,EEG.AF4,EEG.RawCq,EEG.Battery,MarkerIndex,MarkerType,MarkerValueInt,EEG.MarkerHardware,CQ.AF3,CQ.F7,CQ.F3,CQ.FC5,CQ.T7,CQ.P7,CQ.O1,CQ.O2,CQ.P8,CQ.T8,CQ.FC6,CQ.F4,CQ.F8,CQ.AF4,CQ.Overall
1600982328.276267,121.000000,0.000000,3890.769287,4610.769043,4105.641113,4247.179688,4014.358887,4613.333496,3961.025635,3796.923096,4349.230957,4033.846191,4239.487305,4138.461426,4057.948730,3978.974365,300.000000,4.000000,,,,0.000000,4.000000,4.000000,4.000000,4.000000,4.000000,4.000000,4.000000,4.000000,4.000000,4.000000,2.000000,2.000000,4.000000,1.000000,41.666668
1600982328.283988,122.000000,0.000000,3900.000000,4611.282227,4109.743652,4250.256348,4014.358887,4615.384766,3962.051270,3800.512939,4353.846191,4036.923096,4234.871582,4144.615234,4057.435791,3979.487061,437.000000,4.000000,,,,0.000000,4.000000,4.000000,4.000000,4.000000,4.000000,4.000000,4.000000,4.000000,4.000000,4.000000,2.000000,2.000000,4.000000,1.000000,41.666668
1600982328.291808,123.000000,0.000000,3904.615479,4610.769043,4110.256348,4251.282227,4010.256348,4615.384766,3961.025635,3802.564209,4353.333496,4040.000000,4234.871582,4144.615234,4060.000000,3979.487061,125.000000,4.000000,,,,0.000000,4.000000,4.000000,4.000000,4.000000,4.000000,4.000000,4.000000,4.000000,4.000000,4.000000,2.000000,2.000000,4.000000,1.000000,41.666668
1600982328.299529,124.000000,0.000000,3906.666748,4621.538574,4113.846191,4257.436035,4018.461426,4619.487305,3962.564209,3808.718018,4353.333496,4043.076904,4242.051270,4143.589844,4066.153809,3984.615479,317.000000,4.000000,,,,0.000000,4.000000,4.000000,4.000000,4.000000,4.000000,4.000000,4.000000,4.000000,4.000000,4.000000,2.000000,2.000000,4.000000,1.000000,41.666668
1600982328.307349,125.000000,0.000000,3906.666748,4629.230957,4120.000000,4261.025879,4026.153809,4625.641113,3964.615479,3809.230713,4353.333496,4044.615479,4244.615234,4146.153809,4070.769287,3987.179443,300.000000,4.000000,,,,0.000000,4.000000,4.000000,4.000000,4.000000,4.000000,4.000000,4.000000,4.000000,4.000000,4.000000,2.000000,2.000000,4.000000,1.000000,41.666668
1600982328.315070,126.000000,0.000000,3902.051270,4624.615234,4119.487305,4256.410156,4022.564209,4628.205078,3961.538574,3805.641113,4350.256348,4044.615479,4240.512695,4146.666504,4067.179443,3985.128174,437.000000,4.000000,,,,0.000000,4.000000,4.000000,4.000000,4.000000,4.000000,4.000000,4.000000,4.000000,4.000000,4.000000,2.000000,2.000000,4.000000,1.000000,41.666668
1600982328.322991,127.000000,0.000000,3900.512939,4618.461426,4117.948730,4254.358887,4015.897461,4620.000000,3958.974365,3808.205078,4349.230957,4045.641113,4235.384766,4145.128418,4061.025635,3981.025635,125.000000,4.000000,,,,0.000000,4.000000,4.000000,4.000000,4.000000,4.000000,4.000000,4.000000,4.000000,4.000000,4.000000,2.000000,2.000000,4.000000,1.000000,41.666668
1600982328.330811,128.000000,0.000000,3900.512939,4619.487305,4117.436035,4255.897461,4011.794922,4608.205078,3960.000000,3810.256348,4346.153809,4036.410156,4233.846191,4144.615234,4058.974365,3979.487061,317.000000,4.000000,,,,0.000000,4.000000,4.000000,4.000000,4.000000,4.000000,4.000000,4.000000,4.000000,4.000000,4.000000,2.000000,2.000000,4.000000,1.000000,41.666668
1600982328.338732,0.000000,0.000000,3902.564209,4625.641113,4116.922852,4256.922852,4020.000000,4614.871582,3967.692383,3815.384521,4349.743652,4028.718018,4238.461426,4144.615234,4064.615479,3980.000000,413.000000,4.000000,,,,0.000000,4.000000,4.000000,4.000000,4.000000,4.000000,4.000000,4.000000,4.000000,4.000000,4.000000,2.000000,2.000000,4.000000,1.000000,41.666668
1600982328.346552,1.000000,0.000000,3898.461426,4618.461426,4114.358887,4253.333496,4023.589844,4621.538574,3967.179443,3816.410156,4353.333496,4032.820557,4236.922852,4142.051270,4061.025635,3979.487061,436.000000,4.000000,,,,0.000000,4.000000,4.000000,4.000000,4.000000,4.000000,4.000000,4.000000,4.000000,4.000000,4.000000,2.000000,2.000000,4.000000,1.000000,41.666668
1600982328.354473,2.000000,0.000000,3897.435791,4615.897461,4118.461426,4255.897461,4018.974365,4618.974121,3962.564209,3818.461426,4355.897461,4043.589844,4231.794922,4140.512695,4056.923096,3978.461426,449.000000,4.000000,,,,0.000000,4.000000,4.000000,4.000000,4.000000,4.000000,4.000000,4.000000,4.000000,4.000000,4.000000,2.000000,2.000000,4.000000,1.000000,41.666668
1600982328.362294,3.000000,0.000000,3899.487061,4625.641113,4117.948730,4258.461426,4015.384521,4618.974121,3964.615479,3825.641113,4357.948730,4044.615479,4232.820313,4140.000000,4061.538574,3981.025635,453.000000,4.000000,,,,0.000000,4.000000,4.000000,4.000000,4.000000,4.000000,4.000000,4.000000,4.000000,4.000000,4.000000,2.000000,2.000000,4.000000,1.000000,41.666668
1600982328.370214,4.000000,0.000000,3898.974365,4628.717773,4108.205078,4255.897461,4016.410156,4620.512695,3967.692383,3827.692383,4358.974121,4039.487061,4235.897461,4138.461426,4065.128174,3981.025635,468.000000,4.000000,,,,0.000000,4.000000,4.000000,4.000000,4.000000,4.000000,4.000000,4.000000,4.000000,4.000000,4.000000,2.000000,2.000000,4.000000,1.000000,41.666668
1600982328.378035,5.000000,0.000000,3895.384521,4625.128418,4106.666504,4256.922852,4021.025635,4622.563965,3961.025635,3821.025635,4358.461426,4040.000000,4233.846191,4136.410156,4061.025635,3980.000000,442.000000,4.000000,,,,0.000000,4.000000,4.000000,4.000000,4.000000,4.000000,4.000000,4.000000,4.000000,4.000000,4.000000,2.000000,2.000000,4.000000,1.000000,41.666668
1600982328.385955,6.000000,0.000000,3890.769287,4625.128418,4110.256348,4252.820313,4025.128174,4623.589844,3951.794922,3811.794922,4351.794922,4038.974365,4228.205078,4130.769043,4054.358887,3978.461426,441.000000,4.000000,,,,0.000000,4.000000,4.000000,4.000000,4.000000,4.000000,4.000000,4.000000,4.000000,4.000000,4.000000,2.000000,2.000000,4.000000,1.000000,41.666668
1600982328.393776,7.000000,0.000000,3887.179443,4624.102539,4102.563965,4241.025879,4018.974365,4611.282227,3949.743652,3807.692383,4344.102539,4036.410156,4225.128418,4128.205078,4051.281982,3977.948730,395.000000,4.000000,,,,0.000000,4.000000,4.000000,4.000000,4.000000,4.000000,4.000000,4.000000,4.000000,4.000000,4.000000,2.000000,2.000000,4.000000,1.000000,41.666668
1600982328.401496,8.000000,0.000000,3893.333252,4625.128418,4099.487305,4242.051270,4012.307617,4602.563965,3957.435791,3809.743652,4345.128418,4040.512939,4226.153809,4132.307617,4053.846191,3978.974365,399.000000,4.000000,,,,0.000000,4.000000,4.000000,4.000000,4.000000,4.000000,4.000000,4.000000,4.000000,4.000000,4.000000,2.000000,2.000000,4.000000,1.000000,41.666668
1600982328.409317,9.000000,0.000000,3900.512939,4628.205078,4106.666504,4251.282227,4015.897461,4615.897461,3968.205078,3816.410156,4355.384766,4043.589844,4228.717773,4134.358887,4059.487061,3978.974365,402.000000,4.000000,,,,0.000000,4.000000,4.000000,4.000000,4.000000,4.000000,4.000000,4.000000,4.000000,4.000000,4.000000,2.000000,2.000000,4.000000,1.000000,41.666668
1600982328.417038,10.000000,0.000000,3889.743652,4619.487305,4101.025879,4242.563965,4013.333252,4622.051270,3964.615479,3815.384521,4350.769043,4036.410156,4225.641113,4127.692383,4053.846191,3974.871826,434.000000,4.000000,,,,0.000000,4.000000,4.000000,4.000000,4.000000,4.000000,4.000000,4.000000,4.000000,4.000000,4.000000,2.000000,2.000000,4.000000,1.000000,41.666668
1600982328.424858,11.000000,0.000000,3882.564209,4616.410156,4092.820557,4237.948730,4011.794922,4615.897461,3957.948730,3811.281982,4339.487305,4032.307617,4223.589844,4126.666504,4050.256348,3975.897461,126.000000,4.000000,,,,0.000000,4.000000,4.000000,4.000000,4.000000,4.000000,4.000000,4.000000,4.000000,4.000000,4.000000,2.000000,2.000000,4.000000,1.000000,41.666668
1600982328.432579,12.000000,0.000000,3893.846191,4626.666504,4105.641113,4250.256348,4020.512939,4620.000000,3961.538574,3811.794922,4342.051270,4033.846191,4229.230957,4137.948730,4056.923096,3983.076904,316.000000,4.000000,,,,0.000000,4.000000,4.000000,4.000000,4.000000,4.000000,4.000000,4.000000,4.000000,4.000000,4.000000,2.000000,2.000000,4.000000,1.000000,41.666668
1600982328.440400,13.000000,0.000000,3903.589844,4630.256348,4118.974121,4259.487305,4025.128174,4625.641113,3968.205078,3817.948730,4350.769043,4035.897461,4234.871582,4144.102539,4063.076904,3984.102539,300.000000,4.000000,,,,0.000000,4.000000,4.000000,4.000000,4.000000,4.000000,4.000000,4.000000,4.000000,4.000000,4.000000,2.000000,2.000000,4.000000,1.000000,41.666668
1600982328.448120,14.000000,0.000000,3900.512939,4625.128418,4111.794922,4255.897461,4024.615479,4625.641113,3966.153809,3825.128174,4352.820313,4043.076904,4235.897461,4140.000000,4063.589844,3984.615479,434.000000,4.000000,,,,0.000000,4.000000,4.000000,4.000000,4.000000,4.000000,4.000000,4.000000,4.000000,4.000000,4.000000,2.000000,2.000000,4.000000,1.000000,41.666668
1600982328.455941,15.000000,0.000000,3900.000000,4623.589844,4105.128418,4250.769043,4026.666748,4624.615234,3960.000000,3824.615479,4348.205078,4050.256348,4236.922852,4136.922852,4064.615479,3986.666748,126.000000,4.000000,,,,0.000000,4.000000,4.000000,4.000000,4.000000,4.000000,4.000000,4.000000,4.000000,4.000000,4.000000,2.000000,2.000000,4.000000,1.000000,41.666668
1600982328.463662,16.000000,0.000000,3895.897461,4618.461426,4102.051270,4244.102539,4015.897461,4612.820313,3954.871826,3821.538574,4344.102539,4043.589844,4232.307617,4138.974121,4062.051270,3984.102539,0.000000,4.000000,,,,0.000000,4.000000,4.000000,4.000000,4.000000,4.000000,4.000000,4.000000,4.000000,4.000000,4.000000,2.000000,2.000000,4.000000,1.000000,41.666668
1600982328.471482,17.000000,0.000000,3895.384521,4615.384766,4102.051270,4245.128418,4009.230713,4607.692383,3960.512939,3830.769287,4352.307617,4036.923096,4230.256348,4142.051270,4062.564209,3981.025635,0.000000,4.000000,,,,0.000000,4.000000,4.000000,4.000000,4.000000,4.000000,4.000000,4.000000,4.000000,4.000000,4.000000,2.000000,2.000000,4.000000,1.000000,41.666668
1600982328.479203,18.000000,0.000000,3908.718018,4627.179688,4108.205078,4256.922852,4021.025635,4615.897461,3970.256348,3839.487061,4362.051270,4042.564209,4237.948730,4144.102539,4070.256348,3987.179443,0.000000,4.000000,,,,0.000000,4.000000,4.000000,4.000000,4.000000,4.000000,4.000000,4.000000,4.000000,4.000000,4.000000,2.000000,2.000000,4.000000,1.000000,41.666668
1600982328.487024,19.000000,0.000000,3924.102539,4645.641113,4120.512695,4267.179688,4029.743652,4624.102539,3975.384521,3839.487061,4365.641113,4052.820557,4245.641113,4147.692383,4082.051270,3992.307617,0.000000,4.000000,,,,0.000000,4.000000,4.000000,4.000000,4.000000,4.000000,4.000000,4.000000,4.000000,4.000000,4.000000,2.000000,2.000000,4.000000,1.000000,41.666668
1600982328.494744,20.000000,0.000000,3922.564209,4641.538574,4126.153809,4262.051270,4021.538574,4625.128418,3973.333252,3838.461426,4362.563965,4048.718018,4243.589844,4145.128418,4083.076904,3986.666748,0.000000,4.000000,,,,0.000000,4.000000,4.000000,4.000000,4.000000,4.000000,4.000000,4.000000,4.000000,4.000000,4.000000,2.000000,2.000000,4.000000,1.000000,41.666668
1600982328.502665,21.000000,0.000000,3910.769287,4624.615234,4120.000000,4252.820313,4012.820557,4622.051270,3970.256348,3834.358887,4354.358887,4038.461426,4238.974121,4138.974121,4072.820557,3980.000000,0.000000,4.000000,,,,0.000000,4.000000,4.000000,4.000000,4.000000,4.000000,4.000000,4.000000,4.000000,4.000000,4.000000,2.000000,2.000000,4.000000,1.000000,41.666668
1600982328.510485,22.000000,0.000000,3910.256348,4629.743652,4116.922852,4255.897461,4013.846191,4617.948730,3973.846191,3831.794922,4348.717773,4037.435791,4236.922852,4138.974121,4068.718018,3980.512939,0.000000,4.000000,,,,0.000000,4.000000,4.000000,4.000000,4.000000,4.000000,4.000000,4.000000,4.000000,4.000000,4.000000,2.000000,2.000000,4.000000,1.000000,41.666668
1600982328.518406,23.000000,0.000000,3918.461426,4643.077148,4121.025879,4262.563965,4021.538574,4620.000000,3975.384521,3838.461426,4353.846191,4038.974365,4234.871582,4144.102539,4070.769287,3980.512939,0.000000,4.000000,,,,0.000000,4.000000,4.000000,4.000000,4.000000,4.000000,4.000000,4.000000,4.000000,4.000000,4.000000,2.000000,2.000000,4.000000,1.000000,41.666668
1600982328.526227,24.000000,0.000000,3920.000000,4639.487305,4124.102539,4261.025879,4028.718018,4626.153809,3968.718018,3841.025635,4351.794922,4037.435791,4233.846191,4147.179688,4069.230713,3980.000000,0.000000,4.000000,,,,0.000000,4.000000,4.000000,4.000000,4.000000,4.000000,4.000000,4.000000,4.000000,4.000000,4.000000,2.000000,2.000000,4.000000,1.000000,41.666668
1600982328.534147,25.000000,0.000000,3913.846191,4629.743652,4120.512695,4253.846191,4023.076904,4620.000000,3963.076904,3832.820557,4337.948730,4035.897461,4230.769043,4145.641113,4066.666748,3977.948730,0.000000,4.000000,,,,0.000000,4.000000,4.000000,4.000000,4.000000,4.000000,4.000000,4.000000,4.000000,4.000000,4.000000,2.000000,2.000000,4.000000,1.000000,41.666668
1600982328.541968,26.000000,0.000000,3914.358887,4628.717773,4117.948730,4251.282227,4013.333252,4611.282227,3966.153809,3831.281982,4337.948730,4036.410156,4231.794922,4148.205078,4071.794922,3975.384521,0.000000,4.000000,,,,0.000000,4.000000,4.000000,4.000000,4.000000,4.000000,4.000000,4.000000,4.000000,4.000000,4.000000,2.000000,2.000000,4.000000,1.000000,41.666668
1600982328.549888,27.000000,0.000000,3915.897461,4626.153809,4118.461426,4249.230957,4007.692383,4611.282227,3967.179443,3834.358887,4346.153809,4032.820557,4236.922852,4154.358887,4071.281982,3976.410156,0.000000,4.000000,,,,0.000000,4.000000,4.000000,4.000000,4.000000,4.000000,4.000000,4.000000,4.000000,4.000000,4.000000,2.000000,2.000000,4.000000,1.000000,41.666668
1600982328.557709,28.000000,0.000000,3915.384521,4627.179688,4121.025879,4249.743652,4009.743652,4616.410156,3966.666748,3835.897461,4346.153809,4032.820557,4240.512695,4160.512695,4069.230713,3976.923096,0.000000,4.000000,,,,0.000000,4.000000,4.000000,4.000000,4.000000,4.000000,4.000000,4.000000,4.000000,4.000000,4.000000,2.000000,2.000000,4.000000,1.000000,41.666668
1600982328.565629,29.000000,0.000000,3914.358887,4627.179688,4119.487305,4252.820313,4018.461426,4622.563965,3969.230713,3841.538574,4347.179688,4034.358887,4240.512695,4161.538574,4071.281982,3972.820557,0.000000,4.000000,,,,0.000000,4.000000,4.000000,4.000000,4.000000,4.000000,4.000000,4.000000,4.000000,4.000000,4.000000,2.000000,2.000000,4.000000,1.000000,41.666668
1600982328.573450,30.000000,0.000000,3908.205078,4620.000000,4111.282227,4251.282227,4021.538574,4626.666504,3969.743652,3847.179443,4351.794922,4037.435791,4239.487305,4156.922852,4068.718018,3970.769287,0.000000,4.000000,,,,0.000000,4.000000,4.000000,4.000000,4.000000,4.000000,4.000000,4.000000,4.000000,4.000000,4.000000,2.000000,2.000000,4.000000,1.000000,41.666668
1600982328.581370,31.000000,0.000000,3906.666748,4617.948730,4108.717773,4248.717773,4016.410156,4625.641113,3968.205078,3841.025635,4342.563965,4046.153809,4240.000000,4155.897461,4063.076904,3974.871826,0.000000,4.000000,,,,0.000000,4.000000,4.000000,4.000000,4.000000,4.000000,4.000000,4.000000,4.000000,4.000000,4.000000,2.000000,2.000000,4.000000,1.000000,41.666668
1600982328.589291,32.000000,0.000000,3916.410156,4624.102539,4114.358887,4248.717773,4015.897461,4617.436035,3967.692383,3834.871826,4333.333496,4049.230713,4237.948730,4157.948730,4066.153809,3973.333252,0.000000,4.000000,,,,0.000000,4.000000,4.000000,4.000000,4.000000,4.000000,4.000000,4.000000,4.000000,4.000000,4.000000,2.000000,2.000000,4.000000,1.000000,41.666668
1600982328.597112,33.000000,0.000000,3917.435791,4623.589844,4114.358887,4249.743652,4016.923096,4609.230957,3966.666748,3835.897461,4340.512695,4042.051270,4233.333496,4158.974121,4068.718018,3969.743652,0.000000,4.000000,,,,0.000000,4.000000,4.000000,4.000000,4.000000,4.000000,4.000000,4.000000,4.000000,4.000000,4.000000,2.000000,2.000000,4.000000,1.000000,41.666668
1600982328.604933,34.000000,0.000000,3915.897461,4622.563965,4116.410156,4254.871582,4018.974365,4616.922852,3971.281982,3844.615479,4352.820313,4046.666748,4234.871582,4161.025879,4070.256348,3972.307617,0.000000,4.000000,,,,0.000000,4.000000,4.000000,4.000000,4.000000,4.000000,4.000000,4.000000,4.000000,4.000000,4.000000,2.000000,2.000000,4.000000,1.000000,41.666668
1600982328.612654,35.000000,0.000000,3919.487061,4627.692383,4122.051270,4257.948730,4023.076904,4627.692383,3975.384521,3851.281982,4353.846191,4055.384521,4241.538574,4164.615234,4071.794922,3976.923096,0.000000,4.000000,,,,0.000000,4.000000,4.000000,4.000000,4.000000,4.000000,4.000000,4.000000,4.000000,4.000000,4.000000,2.000000,2.000000,4.000000,1.000000,41.666668
1600982328.620474,36.000000,0.000000,3923.589844,4631.282227,4124.615234,4257.436035,4024.102539,4627.179688,3971.794922,3849.743652,4348.205078,4049.743652,4242.051270,4163.589844,4071.794922,3971.794922,0.000000,4.000000,,,,0.000000,4.000000,4.000000,4.000000,4.000000,4.000000,4.000000,4.000000,4.000000,4.000000,4.000000,2.000000,2.000000,4.000000,1.000000,41.666668
1600982328.628195,37.000000,0.000000,3920.000000,4624.615234,4118.974121,4254.871582,4018.461426,4618.461426,3963.589844,3840.512939,4340.512695,4041.538574,4235.897461,4162.051270,4067.179443,3967.692383,0.000000,4.000000,,,,0.000000,4.000000,4.000000,4.000000,4.000000,4.000000,4.000000,4.000000,4.000000,4.000000,4.000000,2.000000,2.000000,4.000000,1.000000,41.666668
1600982328.636015,38.000000,0.000000,3913.333252,4616.922852,4113.333496,4250.256348,4013.846191,4616.410156,3962.564209,3836.923096,4338.461426,4041.538574,4233.333496,4162.563965,4062.051270,3969.230713,0.000000,4.000000,,,,0.000000,4.000000,4.000000,4.000000,4.000000,4.000000,4.000000,4.000000,4.000000,4.000000,4.000000,2.000000,2.000000,4.000000,1.000000,41.666668
1600982328.643736,39.000000,0.000000,3911.281982,4618.461426,4111.794922,4245.641113,4013.846191,4622.051270,3966.666748,3840.000000,4337.948730,4043.589844,4233.333496,4161.025879,4059.487061,3968.205078,0.000000,4.000000,,,,0.000000,4.000000,4.000000,4.000000,4.000000,4.000000,4.000000,4.000000,4.000000,4.000000,4.000000,2.000000,2.000000,4.000000,1.000000,41.666668
1600982328.651557,40.000000,0.000000,3916.410156,4624.615234,4115.897461,4248.717773,4013.846191,4627.692383,3972.307617,3843.076904,4335.897461,4044.102539,4232.307617,4163.077148,4061.538574,3969.230713,0.000000,4.000000,,,,0.000000,4.000000,4.000000,4.000000,4.000000,4.000000,4.000000,4.000000,4.000000,4.000000,4.000000,2.000000,2.000000,4.000000,1.000000,41.666668
1600982328.659277,41.000000,0.000000,3915.384521,4622.051270,4116.410156,4247.692383,4014.358887,4628.717773,3973.333252,3851.281982,4339.487305,4042.564209,4230.256348,4164.615234,4062.051270,3971.794922,0.000000,4.000000,,,,0.000000,4.000000,4.000000,4.000000,4.000000,4.000000,4.000000,4.000000,4.000000,4.000000,4.000000,2.000000,2.000000,4.000000,1.000000,41.666668
1600982328.667098,42.000000,0.000000,3906.153809,4614.871582,4106.153809,4240.000000,4016.410156,4623.589844,3967.692383,3852.307617,4338.461426,4042.051270,4225.641113,4167.179688,4056.923096,3968.718018,0.000000,4.000000,,,,0.000000,4.000000,4.000000,4.000000,4.000000,4.000000,4.000000,4.000000,4.000000,4.000000,4.000000,2.000000,2.000000,4.000000,1.000000,41.666668
1600982328.674819,43.000000,0.000000,3914.358887,4626.666504,4109.230957,4250.256348,4023.076904,4623.077148,3973.333252,3853.333252,4341.538574,4047.692383,4232.307617,4173.846191,4067.179443,3970.769287,0.000000,4.000000,,,,0.000000,4.000000,4.000000,4.000000,4.000000,4.000000,4.000000,4.000000,4.000000,4.000000,4.000000,2.000000,2.000000,4.000000,1.000000,41.666668
1600982328.682739,44.000000,0.000000,3923.076904,4635.897461,4116.922852,4261.538574,4021.538574,4624.615234,3978.461426,3856.410156,4351.282227,4050.256348,4241.538574,4173.333496,4077.435791,3976.410156,0.000000,4.000000,,,,0.000000,4.000000,4.000000,4.000000,4.000000,4.000000,4.000000,4.000000,4.000000,4.000000,4.000000,2.000000,2.000000,4.000000,1.000000,41.666668
1600982328.690560,45.000000,0.000000,3912.820557,4624.615234,4110.256348,4253.333496,4012.820557,4621.025879,3967.692383,3851.281982,4347.692383,4047.692383,4235.384766,4162.563965,4065.641113,3971.794922,0.000000,4.000000,,,,0.000000,4.000000,4.000000,4.000000,4.000000,4.000000,4.000000,4.000000,4.000000,4.000000,4.000000,2.000000,2.000000,4.000000,1.000000,41.666668
1600982328.698480,46.000000,0.000000,3903.589844,4614.358887,4100.512695,4245.641113,4012.820557,4615.384766,3958.461426,3841.025635,4333.846191,4044.615479,4222.563965,4156.922852,4053.846191,3966.666748,0.000000,4.000000,,,,0.000000,4.000000,4.000000,4.000000,4.000000,4.000000,4.000000,4.000000,4.000000,4.000000,4.000000,2.000000,2.000000,4.000000,1.000000,41.666668
1600982328.706301,47.000000,0.000000,3907.692383,4623.077148,4103.589844,4249.230957,4018.461426,4620.512695,3965.641113,3841.538574,4336.410156,4041.025635,4225.128418,4161.538574,4060.512939,3969.230713,0.000000,4.000000,,,,0.000000,4.000000,4.000000,4.000000,4.000000,4.000000,4.000000,4.000000,4.000000,4.000000,4.000000,2.000000,2.000000,4.000000,1.000000,41.666668
1600982328.714222,48.000000,0.000000,3906.153809,4625.128418,4104.615234,4246.666504,4013.846191,4624.615234,3969.230713,3847.692383,4346.153809,4039.487061,4231.282227,4163.589844,4064.615479,3971.794922,0.000000,4.000000,,,,0.000000,4.000000,4.000000,4.000000,4.000000,4.000000,4.000000,4.000000,4.000000,4.000000,4.000000,2.000000,2.000000,4.000000,1.000000,41.666668
1600982328.722042,49.000000,0.000000,3902.051270,4617.948730,4102.563965,4241.538574,4012.307617,4615.897461,3963.589844,3848.718018,4345.641113,4044.615479,4230.769043,4162.051270,4063.589844,3970.769287,0.000000,4.000000,,,,0.000000,4.000000,4.000000,4.000000,4.000000,4.000000,4.000000,4.000000,4.000000,4.000000,4.000000,2.000000,2.000000,4.000000,1.000000,41.666668
1600982328.729963,50.000000,0.000000,3898.974365,4617.948730,4100.512695,4238.461426,4010.769287,4606.153809,3957.435791,3848.718018,4338.461426,4037.435791,4226.666504,4158.461426,4059.487061,3967.692383,0.000000,4.000000,,,,0.000000,4.000000,4.000000,4.000000,4.000000,4.000000,4.000000,4.000000,4.000000,4.000000,4.000000,2.000000,2.000000,4.000000,1.000000,41.666668
1600982328.737783,51.000000,0.000000,3902.051270,4625.128418,4100.512695,4242.051270,4009.230713,4614.358887,3961.025635,3854.871826,4340.512695,4034.358887,4227.692383,4160.000000,4058.974365,3965.128174,0.000000,4.000000,,,,0.000000,4.000000,4.000000,4.000000,4.000000,4.000000,4.000000,4.000000,4.000000,4.000000,4.000000,2.000000,2.000000,4.000000,1.000000,41.666668
1600982328.745704,52.000000,0.000000,3912.820557,4630.256348,4106.153809,4249.743652,4015.897461,4627.179688,3970.769287,3861.538574,4353.333496,4050.769287,4231.794922,4169.230957,4066.666748,3971.281982,0.000000,4.000000,,,,0.000000,4.000000,4.000000,4.000000,4.000000,4.000000,4.000000,4.000000,4.000000,4.000000,4.000000,2.000000,2.000000,4.000000,1.000000,41.666668
1600982328.753524,53.000000,0.000000,3917.435791,4633.846191,4112.307617,4251.794922,4022.564209,4627.179688,3972.820557,3858.974365,4355.897461,4060.000000,4233.333496,4175.384766,4072.820557,3975.897461,0.000000,4.000000,,,,0.000000,4.000000,4.000000,4.000000,4.000000,4.000000,4.000000,4.000000,4.000000,4.000000,4.000000,2.000000,2.000000,4.000000,1.000000,41.666668
1600982328.761345,54.000000,0.000000,3915.384521,4639.487305,4113.846191,4251.282227,4019.487061,4622.563965,3966.666748,3852.820557,4348.205078,4053.333252,4236.410156,4176.410156,4073.333252,3974.358887,0.000000,4.000000,,,,0.000000,4.000000,4.000000,4.000000,4.000000,4.000000,4.000000,4.000000,4.000000,4.000000,4.000000,2.000000,2.000000,4.000000,1.000000,41.666668
1600982328.769166,55.000000,0.000000,3919.487061,4642.051270,4117.436035,4253.333496,4021.538574,4624.615234,3969.230713,3858.461426,4351.282227,4053.846191,4242.563965,4178.461426,4076.410156,3976.410156,0.000000,4.000000,,,,0.000000,4.000000,4.000000,4.000000,4.000000,4.000000,4.000000,4.000000,4.000000,4.000000,4.000000,2.000000,2.000000,4.000000,1.000000,41.666668
1600982328.776886,56.000000,0.000000,3915.897461,4631.282227,4116.410156,4248.717773,4021.538574,4622.051270,3971.794922,3861.025635,4348.717773,4050.769287,4240.000000,4178.974121,4071.281982,3978.461426,0.000000,4.000000,,,,0.000000,4.000000,4.000000,4.000000,4.000000,4.000000,4.000000,4.000000,4.000000,4.000000,4.000000,2.000000,2.000000,4.000000,1.000000,41.666668
1600982328.784707,57.000000,0.000000,3903.589844,4620.512695,4107.179688,4242.051270,4010.256348,4617.436035,3965.641113,3853.846191,4334.871582,4035.384521,4228.717773,4173.333496,4060.000000,3972.820557,0.000000,4.000000,,,,0.000000,4.000000,4.000000,4.000000,4.000000,4.000000,4.000000,4.000000,4.000000,4.000000,4.000000,2.000000,2.000000,4.000000,1.000000,41.666668
1600982328.792428,58.000000,0.000000,3902.564209,4622.051270,4102.051270,4243.077148,4010.256348,4621.538574,3962.564209,3844.615479,4333.333496,4029.230713,4223.589844,4169.230957,4056.923096,3967.179443,0.000000,4.000000,,,,0.000000,4.000000,4.000000,4.000000,4.000000,4.000000,4.000000,4.000000,4.000000,4.000000,4.000000,2.000000,2.000000,4.000000,1.000000,41.666668
1600982328.800248,59.000000,0.000000,3906.666748,4624.102539,4104.102539,4244.615234,4020.000000,4627.179688,3966.666748,3836.410156,4335.384766,4032.820557,4223.077148,4171.282227,4056.410156,3968.718018,0.000000,4.000000,,,,0.000000,4.000000,4.000000,4.000000,4.000000,4.000000,4.000000,4.000000,4.000000,4.000000,4.000000,2.000000,2.000000,4.000000,1.000000,41.666668
1600982328.807969,60.000000,0.000000,3906.666748,4624.102539,4107.692383,4245.641113,4021.538574,4624.615234,3971.281982,3841.538574,4334.871582,4034.871826,4225.128418,4174.871582,4058.974365,3972.820557,0.000000,4.000000,,,,0.000000,4.000000,4.000000,4.000000,4.000000,4.000000,4.000000,4.000000,4.000000,4.000000,4.000000,2.000000,2.000000,4.000000,1.000000,41.666668
1600982328.815790,61.000000,0.000000,3903.589844,4616.922852,4105.128418,4241.025879,4013.333252,4611.794922,3963.076904,3844.615479,4334.871582,4034.358887,4226.666504,4172.820313,4061.025635,3972.820557,0.000000,4.000000,,,,0.000000,4.000000,4.000000,4.000000,4.000000,4.000000,4.000000,4.000000,4.000000,4.000000,4.000000,2.000000,2.000000,4.000000,1.000000,41.666668
1600982328.823510,62.000000,0.000000,3903.076904,4614.358887,4104.615234,4241.538574,4008.718018,4608.717773,3959.487061,3844.102539,4338.974121,4038.974365,4230.256348,4169.743652,4062.051270,3973.333252,0.000000,4.000000,,,,0.000000,4.000000,4.000000,4.000000,4.000000,4.000000,4.000000,4.000000,4.000000,4.000000,4.000000,2.000000,2.000000,4.000000,1.000000,41.666668
1600982328.831331,63.000000,0.000000,3906.153809,4620.000000,4110.256348,4248.205078,4009.230713,4620.000000,3970.256348,3856.410156,4344.615234,4045.641113,4239.487305,4172.307617,4068.205078,3978.461426,0.000000,4.000000,,,,0.000000,4.000000,4.000000,4.000000,4.000000,4.000000,4.000000,4.000000,4.000000,4.000000,4.000000,2.000000,2.000000,4.000000,1.000000,41.666668
1600982328.839052,64.000000,0.000000,3908.718018,4621.538574,4113.846191,4247.692383,4009.743652,4622.051270,3975.384521,3864.102539,4345.641113,4045.641113,4244.615234,4175.384766,4072.307617,3982.051270,415.000000,4.000000,,,,0.000000,4.000000,4.000000,4.000000,4.000000,4.000000,4.000000,4.000000,4.000000,4.000000,4.000000,2.000000,2.000000,4.000000,1.000000,41.666668
1600982328.846872,65.000000,0.000000,3908.205078,4618.461426,4115.384766,4244.615234,4011.281982,4612.307617,3969.230713,3851.281982,4344.615234,4044.615479,4241.025879,4175.384766,4071.794922,3982.051270,435.000000,4.000000,,,,0.000000,4.000000,4.000000,4.000000,4.000000,4.000000,4.000000,4.000000,4.000000,4.000000,4.000000,2.000000,2.000000,4.000000,1.000000,41.666668
1600982328.854593,66.000000,0.000000,3908.718018,4620.512695,4118.974121,4248.717773,4012.820557,4613.846191,3970.769287,3848.718018,4348.717773,4046.153809,4242.051270,4174.358887,4075.384521,3981.025635,447.000000,4.000000,,,,0.000000,4.000000,4.000000,4.000000,4.000000,4.000000,4.000000,4.000000,4.000000,4.000000,4.000000,2.000000,2.000000,4.000000,1.000000,41.666668
1600982328.862513,67.000000,0.000000,3905.641113,4615.897461,4123.589844,4249.230957,4010.769287,4620.000000,3971.281982,3858.461426,4349.743652,4040.512939,4243.589844,4174.358887,4073.333252,3981.538574,454.000000,4.000000,,,,0.000000,4.000000,4.000000,4.000000,4.000000,4.000000,4.000000,4.000000,4.000000,4.000000,4.000000,2.000000,2.000000,4.000000,1.000000,41.666668
1600982328.870334,68.000000,0.000000,3901.538574,4611.282227,4133.333496,4247.692383,4012.307617,4622.563965,3967.692383,3861.538574,4350.256348,4037.948730,4238.461426,4172.820313,4066.666748,3978.974365,468.000000,4.000000,,,,0.000000,4.000000,4.000000,4.000000,4.000000,4.000000,4.000000,4.000000,4.000000,4.000000,4.000000,2.000000,2.000000,4.000000,1.000000,41.666668
1600982328.878254,69.000000,0.000000,3901.025635,4618.974121,4143.589844,4250.256348,4021.025635,4626.153809,3971.794922,3866.666748,4358.974121,4045.128174,4235.384766,4167.692383,4068.205078,3978.461426,443.000000,4.000000,,,,0.000000,4.000000,4.000000,4.000000,4.000000,4.000000,4.000000,4.000000,4.000000,4.000000,4.000000,2.000000,2.000000,4.000000,1.000000,41.666668
1600982328.886075,70.000000,0.000000,3900.512939,4625.641113,4148.717773,4251.282227,4025.128174,4623.589844,3976.410156,3870.769287,4357.436035,4050.769287,4237.436035,4163.077148,4071.794922,3980.000000,441.000000,4.000000,,,,0.000000,4.000000,4.000000,4.000000,4.000000,4.000000,4.000000,4.000000,4.000000,4.000000,4.000000,2.000000,2.000000,4.000000,1.000000,41.666668
1600982328.893996,71.000000,0.000000,3899.487061,4626.666504,4155.384766,4252.307617,4024.615479,4620.000000,3975.897461,3861.538574,4347.692383,4049.743652,4240.512695,4165.641113,4072.307617,3981.025635,392.000000,4.000000,,,,0.000000,4.000000,4.000000,4.000000,4.000000,4.000000,4.000000,4.000000,4.000000,4.000000,4.000000,2.000000,2.000000,4.000000,1.000000,41.666668
1600982328.901816,72.000000,0.000000,3896.410156,4630.769043,4168.717773,4252.307617,4023.589844,4625.641113,3974.871826,3854.871826,4345.128418,4045.641113,4238.974121,4166.666504,4072.307617,3981.025635,397.000000,4.000000,,,,0.000000,4.000000,4.000000,4.000000,4.000000,4.000000,4.000000,4.000000,4.000000,4.000000,4.000000,2.000000,2.000000,4.000000,1.000000,41.666668
1600982328.909737,73.000000,0.000000,3891.281982,4632.307617,4184.615234,4248.717773,4023.076904,4628.205078,3973.846191,3860.000000,4344.102539,4047.179443,4236.410156,4162.563965,4071.281982,3980.000000,402.000000,4.000000,,,,0.000000,4.000000,4.000000,4.000000,4.000000,4.000000,4.000000,4.000000,4.000000,4.000000,4.000000,2.000000,2.000000,4.000000,1.000000,41.666668
1600982328.917557,74.000000,0.000000,3889.743652,4630.256348,4202.051270,4250.256348,4024.615479,4627.692383,3978.461426,3868.718018,4349.230957,4052.820557,4240.000000,4162.563965,4073.333252,3978.974365,437.000000,4.000000,,,,0.000000,4.000000,4.000000,4.000000,4.000000,4.000000,4.000000,4.000000,4.000000,4.000000,4.000000,2.000000,2.000000,4.000000,1.000000,41.666668
1600982328.925478,75.000000,0.000000,3887.179443,4629.743652,4211.794922,4253.846191,4026.666748,4631.282227,3983.076904,3871.794922,4360.000000,4046.153809,4243.589844,4161.538574,4076.410156,3978.461426,126.000000,4.000000,,,,0.000000,4.000000,4.000000,4.000000,4.000000,4.000000,4.000000,4.000000,4.000000,4.000000,4.000000,2.000000,2.000000,4.000000,1.000000,41.666668
1600982328.933298,76.000000,0.000000,3884.102539,4633.846191,4218.461426,4253.846191,4029.743652,4630.256348,3978.461426,3868.205078,4361.025879,4035.897461,4241.538574,4158.974121,4073.333252,3979.487061,316.000000,4.000000,,,,0.000000,4.000000,4.000000,4.000000,4.000000,4.000000,4.000000,4.000000,4.000000,4.000000,4.000000,2.000000,2.000000,4.000000,1.000000,41.666668
1600982328.941219,77.000000,0.000000,3890.769287,4640.512695,4233.333496,4254.358887,4030.769287,4626.153809,3973.333252,3871.794922,4359.487305,4045.641113,4237.948730,4162.563965,4072.820557,3983.076904,300.000000,4.000000,,,,0.000000,4.000000,4.000000,4.000000,4.000000,4.000000,4.000000,4.000000,4.000000,4.000000,4.000000,2.000000,2.000000,4.000000,1.000000,41.666668
1600982328.949040,78.000000,0.000000,3890.769287,4636.922852,4243.077148,4251.794922,4021.025635,4617.948730,3967.179443,3871.794922,4358.461426,4048.718018,4233.846191,4163.589844,4071.794922,3983.589844,437.000000,4.000000,,,,0.000000,4.000000,4.000000,4.000000,4.000000,4.000000,4.000000,4.000000,4.000000,4.000000,4.000000,2.000000,2.000000,4.000000,1.000000,41.666668
1600982328.956760,79.000000,0.000000,3890.256348,4634.358887,4248.205078,4252.820313,4018.461426,4613.333496,3967.692383,3865.128174,4356.410156,4041.025635,4235.384766,4162.563965,4072.820557,3981.538574,126.000000,4.000000,,,,0.000000,4.000000,4.000000,4.000000,4.000000,4.000000,4.000000,4.000000,4.000000,4.000000,4.000000,2.000000,2.000000,4.000000,1.000000,41.666668
1600982328.964581,80.000000,0.000000,3892.820557,4633.333496,4255.897461,4254.871582,4021.025635,4617.948730,3968.718018,3859.487061,4351.794922,4040.000000,4235.897461,4163.077148,4072.820557,3981.025635,316.000000,4.000000,,,,0.000000,4.000000,4.000000,4.000000,4.000000,4.000000,4.000000,4.000000,4.000000,4.000000,4.000000,2.000000,2.000000,4.000000,1.000000,41.666668
1600982328.972302,81.000000,0.000000,3891.794922,4629.743652,4261.025879,4251.794922,4017.948730,4618.974121,3964.615479,3857.948730,4348.205078,4044.615479,4230.256348,4160.512695,4071.794922,3981.025635,300.000000,4.000000,,,,0.000000,4.000000,4.000000,4.000000,4.000000,4.000000,4.000000,4.000000,4.000000,4.000000,4.000000,2.000000,2.000000,4.000000,1.000000,41.666668
1600982328.980122,82.000000,0.000000,3893.333252,4633.333496,4267.179688,4251.282227,4017.948730,4616.922852,3967.692383,3863.589844,4352.820313,4049.230713,4232.820313,4160.000000,4073.333252,3982.051270,437.000000,4.000000,,,,0.000000,4.000000,4.000000,4.000000,4.000000,4.000000,4.000000,4.000000,4.000000,4.000000,4.000000,2.000000,2.000000,4.000000,1.000000,41.666668
1600982328.987843,83.000000,0.000000,3900.512939,4641.538574,4277.436035,4257.948730,4025.128174,4625.128418,3978.974365,3873.333252,4361.025879,4053.846191,4241.025879,4165.641113,4076.923096,3982.564209,126.000000,4.000000,,,,0.000000,4.000000,4.000000,4.000000,4.000000,4.000000,4.000000,4.000000,4.000000,4.000000,4.000000,2.000000,2.000000,4.000000,1.000000,41.666668
1600982328.995663,84.000000,0.000000,3895.384521,4633.846191,4277.948730,4254.358887,4019.487061,4625.128418,3976.410156,3864.615479,4351.282227,4044.102539,4231.282227,4160.512695,4068.718018,3980.000000,316.000000,4.000000,,,,0.000000,4.000000,4.000000,4.000000,4.000000,4.000000,4.000000,4.000000,4.000000,4.000000,4.000000,2.000000,2.000000,4.000000,1.000000,41.666668
1600982329.003384,85.000000,0.000000,3891.281982,4628.717773,4277.948730,4248.205078,4017.948730,4618.974121,3969.743652,3856.923096,4344.615234,4036.923096,4224.102539,4153.333496,4063.589844,3978.461426,300.000000,4.000000,,,,0.000000,4.000000,4.000000,4.000000,4.000000,4.000000,4.000000,4.000000,4.000000,4.000000,4.000000,2.000000,2.000000,4.000000,1.000000,41.666668
1600982329.011205,86.000000,0.000000,3898.974365,4637.948730,4286.666504,4252.307617,4030.256348,4623.077148,3973.846191,3869.230713,4357.948730,4048.718018,4232.820313,4157.436035,4070.256348,3979.487061,437.000000,4.000000,,,,0.000000,4.000000,4.000000,4.000000,4.000000,4.000000,4.000000,4.000000,4.000000,4.000000,4.000000,2.000000,2.000000,4.000000,1.000000,41.666668
1600982329.018925,87.000000,0.000000,3895.897461,4636.410156,4288.717773,4251.282227,4031.281982,4622.051270,3976.923096,3874.358887,4362.563965,4051.794922,4228.717773,4160.000000,4071.794922,3974.358887,126.000000,4.000000,,,,0.000000,4.000000,4.000000,4.000000,4.000000,4.000000,4.000000,4.000000,4.000000,4.000000,4.000000,2.000000,2.000000,4.000000,1.000000,41.666668
1600982329.026746,88.000000,0.000000,3886.153809,4631.794922,4282.563965,4244.102539,4022.564209,4616.922852,3974.871826,3868.718018,4353.846191,4041.538574,4222.051270,4156.410156,4065.641113,3970.769287,316.000000,4.000000,,,,0.000000,4.000000,4.000000,4.000000,4.000000,4.000000,4.000000,4.000000,4.000000,4.000000,4.000000,2.000000,2.000000,4.000000,1.000000,41.666668
1600982329.034467,89.000000,0.000000,3885.128174,4634.358887,4282.051270,4243.077148,4020.512939,4621.538574,3971.794922,3870.256348,4351.282227,4040.512939,4226.153809,4154.871582,4064.102539,3970.769287,300.000000,4.000000,,,,0.000000,4.000000,4.000000,4.000000,4.000000,4.000000,4.000000,4.000000,4.000000,4.000000,4.000000,2.000000,2.000000,4.000000,1.000000,41.666668
1600982329.042287,90.000000,0.000000,3884.615479,4628.205078,4287.692383,4242.051270,4020.000000,4622.051270,3969.230713,3869.230713,4347.692383,4044.102539,4225.128418,4151.794922,4062.564209,3968.718018,437.000000,4.000000,,,,0.000000,4.000000,4.000000,4.000000,4.000000,4.000000,4.000000,4.000000,4.000000,4.000000,4.000000,2.000000,2.000000,4.000000,1.000000,41.666668
1600982329.050008,91.000000,0.000000,3884.102539,4622.563965,4296.922852,4240.000000,4020.000000,4618.974121,3971.794922,3864.615479,4343.077148,4042.564209,4222.051270,4150.769043,4058.974365,3968.718018,126.000000,4.000000,,,,0.000000,4.000000,4.000000,4.000000,4.000000,4.000000,4.000000,4.000000,4.000000,4.000000,4.000000,2.000000,2.000000,4.000000,1.000000,41.666668
1600982329.057929,92.000000,0.000000,3894.871826,4639.487305,4312.307617,4250.769043,4028.718018,4630.769043,3976.923096,3871.281982,4351.794922,4046.666748,4233.846191,4158.974121,4067.179443,3974.358887,316.000000,4.000000,,,,0.000000,4.000000,4.000000,4.000000,4.000000,4.000000,4.000000,4.000000,4.000000,4.000000,4.000000,2.000000,2.000000,4.000000,1.000000,41.666668
1600982329.065749,93.000000,0.000000,3902.564209,4646.666504,4320.000000,4255.897461,4035.384521,4635.384766,3975.384521,3871.281982,4352.820313,4046.153809,4241.025879,4159.487305,4074.358887,3972.820557,300.000000,4.000000,,,,0.000000,4.000000,4.000000,4.000000,4.000000,4.000000,4.000000,4.000000,4.000000,4.000000,4.000000,2.000000,2.000000,4.000000,1.000000,41.666668
1600982329.073670,94.000000,0.000000,3894.871826,4630.769043,4310.769043,4243.077148,4026.153809,4620.512695,3968.718018,3859.487061,4340.000000,4029.743652,4231.282227,4153.333496,4067.179443,3969.743652,437.000000,4.000000,,,,0.000000,4.000000,4.000000,4.000000,4.000000,4.000000,4.000000,4.000000,4.000000,4.000000,4.000000,2.000000,2.000000,4.000000,1.000000,41.666668
1600982329.081490,95.000000,0.000000,3888.718018,4627.692383,4308.205078,4237.948730,4016.410156,4611.282227,3962.564209,3857.435791,4339.487305,4026.153809,4226.666504,4157.436035,4063.589844,3976.410156,126.000000,4.000000,,,,0.000000,4.000000,4.000000,4.000000,4.000000,4.000000,4.000000,4.000000,4.000000,4.000000,4.000000,2.000000,2.000000,4.000000,1.000000,41.666668
1600982329.089411,96.000000,0.000000,3905.128174,4645.641113,4328.717773,4253.333496,4026.153809,4623.077148,3973.333252,3873.846191,4356.410156,4049.230713,4238.974121,4165.641113,4080.000000,3981.025635,316.000000,4.000000,,,,0.000000,4.000000,4.000000,4.000000,4.000000,4.000000,4.000000,4.000000,4.000000,4.000000,4.000000,2.000000,2.000000,4.000000,1.000000,41.666668
1600982329.097231,97.000000,0.000000,3917.435791,4649.230957,4340.000000,4258.461426,4033.333252,4634.871582,3984.102539,3882.564209,4359.487305,4057.948730,4242.051270,4165.641113,4086.153809,3979.487061,300.000000,4.000000,,,,0.000000,4.000000,4.000000,4.000000,4.000000,4.000000,4.000000,4.000000,4.000000,4.000000,4.000000,2.000000,2.000000,4.000000,1.000000,41.666668
1600982329.105152,98.000000,0.000000,3911.281982,4639.487305,4330.769043,4250.256348,4025.641113,4630.769043,3976.923096,3873.333252,4348.717773,4046.666748,4235.384766,4158.974121,4076.410156,3980.512939,437.000000,4.000000,,,,0.000000,4.000000,4.000000,4.000000,4.000000,4.000000,4.000000,4.000000,4.000000,4.000000,4.000000,2.000000,2.000000,4.000000,1.000000,41.666668
1600982329.112973,99.000000,0.000000,3906.153809,4634.358887,4324.615234,4243.589844,4019.487061,4616.922852,3969.743652,3869.743652,4347.179688,4041.538574,4237.436035,4158.461426,4075.384521,3982.564209,126.000000,4.000000,,,,0.000000,4.000000,4.000000,4.000000,4.000000,4.000000,4.000000,4.000000,4.000000,4.000000,4.000000,2.000000,2.000000,4.000000,1.000000,41.666668
1600982329.120893,100.000000,0.000000,3909.743652,4632.307617,4330.256348,4241.538574,4020.512939,4612.307617,3974.358887,3876.923096,4354.358887,4044.615479,4242.051270,4159.487305,4080.000000,3978.461426,316.000000,4.000000,,,,0.000000,4.000000,4.000000,4.000000,4.000000,4.000000,4.000000,4.000000,4.000000,4.000000,4.000000,2.000000,2.000000,4.000000,1.000000,41.666668
1600982329.128714,101.000000,0.000000,3910.769287,4629.230957,4333.846191,4241.538574,4023.076904,4617.948730,3974.358887,3873.333252,4351.794922,4045.128174,4237.436035,4156.922852,4075.384521,3977.948730,300.000000,4.000000,,,,0.000000,4.000000,4.000000,4.000000,4.000000,4.000000,4.000000,4.000000,4.000000,4.000000,4.000000,2.000000,2.000000,4.000000,1.000000,41.666668
1600982329.136634,102.000000,0.000000,3912.820557,4634.871582,4338.461426,4251.282227,4029.230713,4627.179688,3974.358887,3871.794922,4347.179688,4051.794922,4237.948730,4156.410156,4074.871826,3980.512939,437.000000,4.000000,,,,0.000000,4.000000,4.000000,4.000000,4.000000,4.000000,4.000000,4.000000,4.000000,4.000000,4.000000,2.000000,2.000000,4.000000,1.000000,41.666668
1600982329.144455,103.000000,0.000000,3915.897461,4640.000000,4346.153809,4257.436035,4032.307617,4632.820313,3978.974365,3883.589844,4353.846191,4051.794922,4240.000000,4161.538574,4080.512939,3982.564209,126.000000,4.000000,,,,0.000000,4.000000,4.000000,4.000000,4.000000,4.000000,4.000000,4.000000,4.000000,4.000000,4.000000,2.000000,2.000000,4.000000,1.000000,41.666668
1600982329.152175,104.000000,0.000000,3910.769287,4632.820313,4345.641113,4251.794922,4027.692383,4626.666504,3974.871826,3883.076904,4355.897461,4045.641113,4236.922852,4163.589844,4076.923096,3982.051270,316.000000,4.000000,,,,0.000000,4.000000,4.000000,4.000000,4.000000,4.000000,4.000000,4.000000,4.000000,4.000000,4.000000,2.000000,2.000000,4.000000,1.000000,41.666668
1600982329.159996,105.000000,0.000000,3897.435791,4621.538574,4334.358887,4242.051270,4021.025635,4612.820313,3965.641113,3868.205078,4342.051270,4037.948730,4232.307617,4154.358887,4066.666748,3980.000000,300.000000,4.000000,,,,0.000000,4.000000,4.000000,4.000000,4.000000,4.000000,4.000000,4.000000,4.000000,4.000000,4.000000,2.000000,2.000000,4.000000,1.000000,41.666668
1600982329.167717,106.000000,0.000000,3888.718018,4612.820313,4327.179688,4234.358887,4016.923096,4610.256348,3960.512939,3862.051270,4331.794922,4023.076904,4225.641113,4147.692383,4060.000000,3976.923096,437.000000,4.000000,,,,0.000000,4.000000,4.000000,4.000000,4.000000,4.000000,4.000000,4.000000,4.000000,4.000000,4.000000,2.000000,2.000000,4.000000,1.000000,41.666668
1600982329.175537,107.000000,0.000000,3897.435791,4615.897461,4335.384766,4239.487305,4018.974365,4618.974121,3961.025635,3868.718018,4341.025879,4021.538574,4225.128418,4154.871582,4063.076904,3977.435791,126.000000,4.000000,,,,0.000000,4.000000,4.000000,4.000000,4.000000,4.000000,4.000000,4.000000,4.000000,4.000000,4.000000,2.000000,2.000000,4.000000,1.000000,41.666668
1600982329.183258,108.000000,0.000000,3908.718018,4624.615234,4345.128418,4250.769043,4023.589844,4620.512695,3966.153809,3870.769287,4348.717773,4035.384521,4232.820313,4161.025879,4068.718018,3980.512939,316.000000,4.000000,,,,0.000000,4.000000,4.000000,4.000000,4.000000,4.000000,4.000000,4.000000,4.000000,4.000000,4.000000,2.000000,2.000000,4.000000,1.000000,41.666668
1600982329.191079,109.000000,0.000000,3904.615479,4623.589844,4344.102539,4249.743652,4022.051270,4618.461426,3967.179443,3864.102539,4340.512695,4035.384521,4233.846191,4156.410156,4066.153809,3980.512939,300.000000,4.000000,,,,0.000000,4.000000,4.000000,4.000000,4.000000,4.000000,4.000000,4.000000,4.000000,4.000000,4.000000,2.000000,2.000000,4.000000,1.000000,41.666668
1600982329.198799,110.000000,0.000000,3896.410156,4612.307617,4338.974121,4240.000000,4015.384521,4618.974121,3963.589844,3861.538574,4333.846191,4026.153809,4226.666504,4152.820313,4057.948730,3978.974365,437.000000,4.000000,,,,0.000000,4.000000,4.000000,4.000000,4.000000,4.000000,4.000000,4.000000,4.000000,4.000000,4.000000,2.000000,2.000000,4.000000,1.000000,41.666668
1600982329.206620,111.000000,0.000000,3900.000000,4615.384766,4343.077148,4241.538574,4016.923096,4615.384766,3966.153809,3873.846191,4344.615234,4033.333252,4229.230957,4155.897461,4063.076904,3978.974365,126.000000,4.000000,,,,0.000000,4.000000,4.000000,4.000000,4.000000,4.000000,4.000000,4.000000,4.000000,4.000000,4.000000,2.000000,2.000000,4.000000,1.000000,41.666668
1600982329.214341,112.000000,0.000000,3905.128174,4629.230957,4353.333496,4248.205078,4021.025635,4608.205078,3968.205078,3878.461426,4353.333496,4040.512939,4233.333496,4158.974121,4070.769287,3981.025635,316.000000,4.000000,,,,0.000000,4.000000,4.000000,4.000000,4.000000,4.000000,4.000000,4.000000,4.000000,4.000000,4.000000,2.000000,2.000000,4.000000,1.000000,41.666668
1600982329.222161,113.000000,0.000000,3906.153809,4634.871582,4377.948730,4250.256348,4020.000000,4613.333496,3969.743652,3871.281982,4348.205078,4036.923096,4234.871582,4159.487305,4068.718018,3984.102539,300.000000,4.000000,,,,0.000000,4.000000,4.000000,4.000000,4.000000,4.000000,4.000000,4.000000,4.000000,4.000000,4.000000,2.000000,2.000000,4.000000,1.000000,41.666668
1600982329.229882,114.000000,0.000000,3904.615479,4629.230957,4416.410156,4250.256348,4021.538574,4621.538574,3968.205078,3866.666748,4344.615234,4036.410156,4232.820313,4154.358887,4066.153809,3982.564209,437.000000,4.000000,,,,0.000000,4.000000,4.000000,4.000000,4.000000,4.000000,4.000000,4.000000,4.000000,4.000000,4.000000,2.000000,2.000000,4.000000,1.000000,41.666668
1600982329.237703,115.000000,0.000000,3902.564209,4627.692383,4443.077148,4249.743652,4027.692383,4620.512695,3966.153809,3869.743652,4351.282227,4044.102539,4232.307617,4147.692383,4069.230713,3977.435791,126.000000,4.000000,,,,0.000000,4.000000,4.000000,4.000000,4.000000,4.000000,4.000000,4.000000,4.000000,4.000000,4.000000,2.000000,2.000000,4.000000,1.000000,41.666668
1600982329.245423,116.000000,0.000000,3905.641113,4632.307617,4446.666504,4251.794922,4022.564209,4616.922852,3965.641113,3870.256348,4351.794922,4046.666748,4235.384766,4152.307617,4070.256348,3979.487061,316.000000,4.000000,,,,0.000000,4.000000,4.000000,4.000000,4.000000,4.000000,4.000000,4.000000,4.000000,4.000000,4.000000,2.000000,2.000000,4.000000,1.000000,41.666668
1600982329.253344,117.000000,0.000000,3914.871826,4638.974121,4449.743652,4255.384766,4021.538574,4621.538574,3973.846191,3871.794922,4348.717773,4043.076904,4236.922852,4160.512695,4073.333252,3982.564209,300.000000,4.000000,,,,0.000000,4.000000,4.000000,4.000000,4.000000,4.000000,4.000000,4.000000,4.000000,4.000000,4.000000,2.000000,2.000000,4.000000,1.000000,41.666668
1600982329.261164,118.000000,0.000000,3913.333252,4637.436035,4453.846191,4251.794922,4031.281982,4626.666504,3977.435791,3874.358887,4350.256348,4040.000000,4232.820313,4160.000000,4073.846191,3980.000000,437.000000,4.000000,,,,0.000000,4.000000,4.000000,4.000000,4.000000,4.000000,4.000000,4.000000,4.000000,4.000000,4.000000,2.000000,2.000000,4.000000,1.000000,41.666668
1600982329.269085,119.000000,0.000000,3905.128174,4631.794922,4447.179688,4247.179688,4032.820557,4628.205078,3972.820557,3873.333252,4349.743652,4039.487061,4230.769043,4151.794922,4069.743652,3977.435791,126.000000,4.000000,,,,0.000000,4.000000,4.000000,4.000000,4.000000,4.000000,4.000000,4.000000,4.000000,4.000000,4.000000,2.000000,2.000000,4.000000,1.000000,41.666668
1600982329.276905,120.000000,0.000000,3905.128174,4629.743652,4432.307617,4248.205078,4027.692383,4630.256348,3972.307617,3873.846191,4346.153809,4035.897461,4233.333496,4147.692383,4068.205078,3978.974365,316.000000,4.000000,,,,0.000000,4.000000,4.000000,4.000000,4.000000,4.000000,4.000000,4.000000,4.000000,4.000000,4.000000,2.000000,2.000000,4.000000,1.000000,41.666668
1600982329.284826,121.000000,0.000000,3900.512939,4622.051270,4409.743652,4240.512695,4020.000000,4625.128418,3970.256348,3867.692383,4334.871582,4030.256348,4227.692383,4145.641113,4064.102539,3972.820557,300.000000,4.000000,,,,0.000000,4.000000,4.000000,4.000000,4.000000,4.000000,4.000000,4.000000,4.000000,4.000000,4.000000,2.000000,2.000000,4.000000,1.000000,41.666668
1600982329.292646,122.000000,0.000000,3891.794922,4612.820313,4390.256348,4230.256348,4011.794922,4620.000000,3966.153809,3858.461426,4324.102539,4031.281982,4221.025879,4142.051270,4057.435791,3968.205078,437.000000,4.000000,,,,0.000000,4.000000,4.000000,4.000000,4.000000,4.000000,4.000000,4.000000,4.000000,4.000000,4.000000,2.000000,2.000000,4.000000,1.000000,41.666668
1600982329.300567,123.000000,0.000000,3900.000000,4619.487305,4389.230957,4240.000000,4020.000000,4629.230957,3970.769287,3868.718018,4332.820313,4040.512939,4229.230957,4145.128418,4066.666748,3975.897461,126.000000,4.000000,,,,0.000000,4.000000,4.000000,4.000000,4.000000,4.000000,4.000000,4.000000,4.000000,4.000000,4.000000,2.000000,2.000000,4.000000,1.000000,41.666668
1600982329.308388,124.000000,0.000000,3918.461426,4635.897461,4392.307617,4255.897461,4033.846191,4633.333496,3978.974365,3887.179443,4348.717773,4042.051270,4239.487305,4153.333496,4081.025635,3983.589844,316.000000,4.000000,,,,0.000000,4.000000,4.000000,4.000000,4.000000,4.000000,4.000000,4.000000,4.000000,4.000000,4.000000,2.000000,2.000000,4.000000,1.000000,41.666668
1600982329.316308,125.000000,0.000000,3919.487061,4632.307617,4381.025879,4252.820313,4025.128174,4625.641113,3974.871826,3880.000000,4345.128418,4032.820557,4234.358887,4153.333496,4072.307617,3981.025635,300.000000,4.000000,,,,0.000000,4.000000,4.000000,4.000000,4.000000,4.000000,4.000000,4.000000,4.000000,4.000000,4.000000,2.000000,2.000000,4.000000,1.000000,41.666668
1600982329.324129,126.000000,0.000000,3907.692383,4622.563965,4371.282227,4244.102539,4015.384521,4629.230957,3970.769287,3870.769287,4338.974121,4032.307617,4229.230957,4147.179688,4060.000000,3977.948730,437.000000,4.000000,,,,0.000000,4.000000,4.000000,4.000000,4.000000,4.000000,4.000000,4.000000,4.000000,4.000000,4.000000,2.000000,2.000000,4.000000,1.000000,41.666668
1600982329.331949,127.000000,0.000000,3902.564209,4628.205078,4368.205078,4245.128418,4016.410156,4628.717773,3968.718018,3875.897461,4338.974121,4034.358887,4233.333496,4147.692383,4065.641113,3980.512939,126.000000,4.000000,,,,0.000000,4.000000,4.000000,4.000000,4.000000,4.000000,4.000000,4.000000,4.000000,4.000000,4.000000,2.000000,2.000000,4.000000,1.000000,41.666668
1600982329.339770,128.000000,0.000000,3912.820557,4641.025879,4370.769043,4254.871582,4016.410156,4620.000000,3967.692383,3880.000000,4342.563965,4036.923096,4241.538574,4155.384766,4080.000000,3983.589844,316.000000,4.000000,,,,0.000000,4.000000,4.000000,4.000000,4.000000,4.000000,4.000000,4.000000,4.000000,4.000000,4.000000,2.000000,2.000000,4.000000,1.000000,41.666668
1600982329.347491,0.000000,0.000000,3922.564209,4641.025879,4370.769043,4258.974121,4015.384521,4623.589844,3971.281982,3877.435791,4347.179688,4041.538574,4245.641113,4160.512695,4081.025635,3984.615479,410.000000,4.000000,,,,0.000000,4.000000,4.000000,4.000000,4.000000,4.000000,4.000000,4.000000,4.000000,4.000000,4.000000,2.000000,2.000000,4.000000,1.000000,41.666668
1600982329.355311,1.000000,0.000000,3918.461426,4634.871582,4364.615234,4254.871582,4018.461426,4632.820313,3971.794922,3874.871826,4347.179688,4044.102539,4241.538574,4162.051270,4072.307617,3983.589844,435.000000,4.000000,,,,0.000000,4.000000,4.000000,4.000000,4.000000,4.000000,4.000000,4.000000,4.000000,4.000000,4.000000,2.000000,2.000000,4.000000,1.000000,41.666668
1600982329.363032,2.000000,0.000000,3915.384521,4634.358887,4359.487305,4251.794922,4014.871826,4630.769043,3968.718018,3870.769287,4341.025879,4041.025635,4238.974121,4161.025879,4070.256348,3985.128174,452.000000,4.000000,,,,0.000000,4.000000,4.000000,4.000000,4.000000,4.000000,4.000000,4.000000,4.000000,4.000000,4.000000,2.000000,2.000000,4.000000,1.000000,41.666668
1600982329.370954,3.000000,0.000000,3920.000000,4636.410156,4360.512695,4253.333496,4010.769287,4628.717773,3972.307617,3873.333252,4345.641113,4040.512939,4243.077148,4160.512695,4077.435791,3986.153809,455.000000,4.000000,,,,0.000000,4.000000,4.000000,4.000000,4.000000,4.000000,4.000000,4.000000,4.000000,4.000000,4.000000,2.000000,2.000000,4.000000,1.000000,41.666668
1600982329.378775,4.000000,0.000000,3913.846191,4629.230957,4352.307617,4250.769043,4005.128174,4624.615234,3971.281982,3878.974365,4350.769043,4039.487061,4237.948730,4157.948730,4075.384521,3982.051270,471.000000,4.000000,,,,0.000000,4.000000,4.000000,4.000000,4.000000,4.000000,4.000000,4.000000,4.000000,4.000000,4.000000,2.000000,2.000000,4.000000,1.000000,41.666668
1600982329.386596,5.000000,0.000000,3907.692383,4623.077148,4341.538574,4248.717773,3998.461426,4619.487305,3966.666748,3878.974365,4346.153809,4037.435791,4229.743652,4155.897461,4072.307617,3980.000000,442.000000,4.000000,,,,0.000000,4.000000,4.000000,4.000000,4.000000,4.000000,4.000000,4.000000,4.000000,4.000000,4.000000,2.000000,2.000000,4.000000,1.000000,41.666668
1600982329.394418,6.000000,0.000000,3913.333252,4626.666504,4352.820313,4252.307617,4002.564209,4623.589844,3970.769287,3879.487061,4337.948730,4042.564209,4236.922852,4157.948730,4077.948730,3983.076904,441.000000,4.000000,,,,0.000000,4.000000,4.000000,4.000000,4.000000,4.000000,4.000000,4.000000,4.000000,4.000000,4.000000,2.000000,2.000000,4.000000,1.000000,41.666668
1600982329.402239,7.000000,0.000000,3916.410156,4628.717773,4370.769043,4254.871582,4010.256348,4627.179688,3973.846191,3882.564209,4333.333496,4046.153809,4240.512695,4158.974121,4077.948730,3981.538574,392.000000,4.000000,,,,0.000000,4.000000,4.000000,4.000000,4.000000,4.000000,4.000000,4.000000,4.000000,4.000000,4.000000,2.000000,2.000000,4.000000,1.000000,41.666668
1600982329.409960,8.000000,0.000000,3914.871826,4630.256348,4371.282227,4256.922852,4012.820557,4627.692383,3974.358887,3886.666748,4339.487305,4041.538574,4235.384766,4157.436035,4077.435791,3981.025635,397.000000,4.000000,,,,0.000000,4.000000,4.000000,4.000000,4.000000,4.000000,4.000000,4.000000,4.000000,4.000000,4.000000,2.000000,2.000000,4.000000,1.000000,41.666668
1600982329.417880,9.000000,0.000000,3912.820557,4630.256348,4365.128418,4254.358887,4008.718018,4629.230957,3973.846191,3886.153809,4345.128418,4030.769287,4235.384766,4152.307617,4078.461426,3980.512939,405.000000,4.000000,,,,0.000000,4.000000,4.000000,4.000000,4.000000,4.000000,4.000000,4.000000,4.000000,4.000000,4.000000,2.000000,2.000000,4.000000,1.000000,41.666668
1600982329.425701,10.000000,0.000000,3907.692383,4625.128418,4369.743652,4246.153809,4002.564209,4631.794922,3970.256348,3876.410156,4336.922852,4023.589844,4233.333496,4147.179688,4068.205078,3977.435791,435.000000,4.000000,,,,0.000000,4.000000,4.000000,4.000000,4.000000,4.000000,4.000000,4.000000,4.000000,4.000000,4.000000,2.000000,2.000000,4.000000,1.000000,41.666668
1600982329.433622,11.000000,0.000000,3907.179443,4624.615234,4371.794922,4246.153809,4007.179443,4635.897461,3972.307617,3873.333252,4333.846191,4032.307617,4229.743652,4151.282227,4063.589844,3977.948730,126.000000,4.000000,,,,0.000000,4.000000,4.000000,4.000000,4.000000,4.000000,4.000000,4.000000,4.000000,4.000000,4.000000,2.000000,2.000000,4.000000,1.000000,41.666668
1600982329.441442,12.000000,0.000000,3912.820557,4632.820313,4362.563965,4253.846191,4016.923096,4635.384766,3977.948730,3884.102539,4343.589844,4046.666748,4238.974121,4158.974121,4076.923096,3981.538574,316.000000,4.000000,,,,0.000000,4.000000,4.000000,4.000000,4.000000,4.000000,4.000000,4.000000,4.000000,4.000000,4.000000,2.000000,2.000000,4.000000,1.000000,41.666668
1600982329.449363,13.000000,0.000000,3912.820557,4632.820313,4354.358887,4254.871582,4011.794922,4625.128418,3972.820557,3884.102539,4343.589844,4046.666748,4244.102539,4152.820313,4082.051270,3980.512939,300.000000,4.000000,,,,0.000000,4.000000,4.000000,4.000000,4.000000,4.000000,4.000000,4.000000,4.000000,4.000000,4.000000,2.000000,2.000000,4.000000,1.000000,41.666668
1600982329.457183,14.000000,0.000000,3913.333252,4628.717773,4353.846191,4253.333496,3997.435791,4621.025879,3969.230713,3875.897461,4340.000000,4041.538574,4238.461426,4146.666504,4075.897461,3980.000000,435.000000,4.000000,,,,0.000000,4.000000,4.000000,4.000000,4.000000,4.000000,4.000000,4.000000,4.000000,4.000000,4.000000,2.000000,2.000000,4.000000,1.000000,41.666668
1600982329.465104,15.000000,0.000000,3909.230713,4624.102539,4343.589844,4248.717773,3977.435791,4621.025879,3968.718018,3874.358887,4338.461426,4040.512939,4231.282227,4149.743652,4067.692383,3982.051270,126.000000,4.000000,,,,0.000000,4.000000,4.000000,4.000000,4.000000,4.000000,4.000000,4.000000,4.000000,4.000000,4.000000,2.000000,2.000000,4.000000,1.000000,41.666668
1600982329.472925,16.000000,0.000000,3901.025635,4619.487305,4326.153809,4244.615234,3956.923096,4617.948730,3961.538574,3872.820557,4326.153809,4033.846191,4228.205078,4147.692383,4061.538574,3979.487061,0.000000,4.000000,,,,0.000000,4.000000,4.000000,4.000000,4.000000,4.000000,4.000000,4.000000,4.000000,4.000000,4.000000,2.000000,2.000000,4.000000,1.000000,41.666668
1600982329.480845,17.000000,0.000000,3905.641113,4620.512695,4320.512695,4251.282227,3954.358887,4623.077148,3962.564209,3866.153809,4319.487305,4026.153809,4228.717773,4148.205078,4064.615479,3978.974365,0.000000,4.000000,,,,0.000000,4.000000,4.000000,4.000000,4.000000,4.000000,4.000000,4.000000,4.000000,4.000000,4.000000,2.000000,2.000000,4.000000,1.000000,41.666668
1600982329.488666,18.000000,0.000000,3922.564209,4629.743652,4329.230957,4260.000000,3965.128174,4633.333496,3974.871826,3870.769287,4336.922852,4038.974365,4235.897461,4160.512695,4076.410156,3982.564209,0.000000,4.000000,,,,0.000000,4.000000,4.000000,4.000000,4.000000,4.000000,4.000000,4.000000,4.000000,4.000000,4.000000,2.000000,2.000000,4.000000,1.000000,41.666668
1600982329.496586,19.000000,0.000000,3925.641113,4634.871582,4342.563965,4261.025879,3959.487061,4627.179688,3976.410156,3880.000000,4344.615234,4053.333252,4241.538574,4165.641113,4082.051270,3987.179443,0.000000,4.000000,,,,0.000000,4.000000,4.000000,4.000000,4.000000,4.000000,4.000000,4.000000,4.000000,4.000000,4.000000,2.000000,2.000000,4.000000,1.000000,41.666668
1600982329.504407,20.000000,0.000000,3924.102539,4635.897461,4360.000000,4264.102539,3953.846191,4625.641113,3972.307617,3878.461426,4336.410156,4049.230713,4242.051270,4162.563965,4085.641113,3988.718018,0.000000,4.000000,,,,0.000000,4.000000,4.000000,4.000000,4.000000,4.000000,4.000000,4.000000,4.000000,4.000000,4.000000,2.000000,2.000000,4.000000,1.000000,41.666668
1600982329.512127,21.000000,0.000000,3922.564209,4630.769043,4374.358887,4263.589844,3955.897461,4632.820313,3971.794922,3868.718018,4330.769043,4039.487061,4237.948730,4160.000000,4083.589844,3985.128174,0.000000,4.000000,,,,0.000000,4.000000,4.000000,4.000000,4.000000,4.000000,4.000000,4.000000,4.000000,4.000000,4.000000,2.000000,2.000000,4.000000,1.000000,41.666668
1600982329.519948,22.000000,0.000000,3920.000000,4626.153809,4385.128418,4259.487305,3952.307617,4632.820313,3974.871826,3866.666748,4331.282227,4038.461426,4234.358887,4156.922852,4075.384521,3980.000000,0.000000,4.000000,,,,0.000000,4.000000,4.000000,4.000000,4.000000,4.000000,4.000000,4.000000,4.000000,4.000000,4.000000,2.000000,2.000000,4.000000,1.000000,41.666668
1600982329.527669,23.000000,0.000000,3924.102539,4629.743652,4397.436035,4259.487305,3949.743652,4636.410156,3980.512939,3875.897461,4334.871582,4037.435791,4236.410156,4156.410156,4073.333252,3984.102539,0.000000,4.000000,,,,0.000000,4.000000,4.000000,4.000000,4.000000,4.000000,4.000000,4.000000,4.000000,4.000000,4.000000,2.000000,2.000000,4.000000,1.000000,41.666668
1600982329.535489,24.000000,0.000000,3922.051270,4627.692383,4403.589844,4256.410156,3947.692383,4640.000000,3976.923096,3872.307617,4330.769043,4032.820557,4235.384766,4154.358887,4071.281982,3986.666748,0.000000,4.000000,,,,0.000000,4.000000,4.000000,4.000000,4.000000,4.000000,4.000000,4.000000,4.000000,4.000000,4.000000,2.000000,2.000000,4.000000,1.000000,41.666668
1600982329.543210,25.000000,0.000000,3908.718018,4619.487305,4393.333496,4251.282227,3941.538574,4629.743652,3967.179443,3862.564209,4322.563965,4032.820557,4230.256348,4150.256348,4066.666748,3981.025635,0.000000,4.000000,,,,0.000000,4.000000,4.000000,4.000000,4.000000,4.000000,4.000000,4.000000,4.000000,4.000000,4.000000,2.000000,2.000000,4.000000,1.000000,41.666668
1600982329.551031,26.000000,0.000000,3908.205078,4622.051270,4367.692383,4254.871582,3939.487061,4622.051270,3969.743652,3871.281982,4327.179688,4038.461426,4231.794922,4149.230957,4071.281982,3980.000000,0.000000,4.000000,,,,0.000000,4.000000,4.000000,4.000000,4.000000,4.000000,4.000000,4.000000,4.000000,4.000000,4.000000,2.000000,2.000000,4.000000,1.000000,41.666668
1600982329.558751,27.000000,0.000000,3915.384521,4627.692383,4340.000000,4257.436035,3943.076904,4627.692383,3974.358887,3881.538574,4331.794922,4036.923096,4234.358887,4148.717773,4072.307617,3984.102539,0.000000,4.000000,,,,0.000000,4.000000,4.000000,4.000000,4.000000,4.000000,4.000000,4.000000,4.000000,4.000000,4.000000,2.000000,2.000000,4.000000,1.000000,41.666668
1600982329.566572,28.000000,0.000000,3904.615479,4613.846191,4316.410156,4246.153809,3937.948730,4628.717773,3963.589844,3868.718018,4317.948730,4024.615479,4225.641113,4141.538574,4060.512939,3980.000000,0.000000,4.000000,,,,0.000000,4.000000,4.000000,4.000000,4.000000,4.000000,4.000000,4.000000,4.000000,4.000000,4.000000,2.000000,2.000000,4.000000,1.000000,41.666668
1600982329.574293,29.000000,0.000000,3903.589844,4608.717773,4308.205078,4245.128418,3935.384521,4624.615234,3962.051270,3865.128174,4315.384766,4030.769287,4226.666504,4146.153809,4065.641113,3976.410156,0.000000,4.000000,,,,0.000000,4.000000,4.000000,4.000000,4.000000,4.000000,4.000000,4.000000,4.000000,4.000000,4.000000,2.000000,2.000000,4.000000,1.000000,41.666668
1600982329.582113,30.000000,0.000000,3923.589844,4625.641113,4311.282227,4259.487305,3939.487061,4624.102539,3973.333252,3880.512939,4329.743652,4048.718018,4240.512695,4159.487305,4082.051270,3985.128174,0.000000,4.000000,,,,0.000000,4.000000,4.000000,4.000000,4.000000,4.000000,4.000000,4.000000,4.000000,4.000000,4.000000,2.000000,2.000000,4.000000,1.000000,41.666668
1600982329.589834,31.000000,0.000000,3930.769287,4633.333496,4307.692383,4265.128418,3938.974365,4620.512695,3974.358887,3880.000000,4332.307617,4046.666748,4244.615234,4162.563965,4082.564209,3990.256348,0.000000,4.000000,,,,0.000000,4.000000,4.000000,4.000000,4.000000,4.000000,4.000000,4.000000,4.000000,4.000000,4.000000,2.000000,2.000000,4.000000,1.000000,41.666668
1600982329.597755,32.000000,0.000000,3917.435791,4620.512695,4289.743652,4254.871582,3931.794922,4615.897461,3963.076904,3862.564209,4323.077148,4030.769287,4233.846191,4158.974121,4073.846191,3985.641113,0.000000,4.000000,,,,0.000000,4.000000,4.000000,4.000000,4.000000,4.000000,4.000000,4.000000,4.000000,4.000000,4.000000,2.000000,2.000000,4.000000,1.000000,41.666668
1600982329.605576,33.000000,0.000000,3908.718018,4609.743652,4276.922852,4244.615234,3924.102539,4611.794922,3956.410156,3860.512939,4316.410156,4031.281982,4223.077148,4157.436035,4067.692383,3981.538574,0.000000,4.000000,,,,0.000000,4.000000,4.000000,4.000000,4.000000,4.000000,4.000000,4.000000,4.000000,4.000000,4.000000,2.000000,2.000000,4.000000,1.000000,41.666668
1600982329.613496,34.000000,0.000000,3907.179443,4607.179688,4273.333496,4239.487305,3917.435791,4605.128418,3954.871826,3865.128174,4309.230957,4036.410156,4219.487305,4155.384766,4062.051270,3982.564209,0.000000,4.000000,,,,0.000000,4.000000,4.000000,4.000000,4.000000,4.000000,4.000000,4.000000,4.000000,4.000000,4.000000,2.000000,2.000000,4.000000,1.000000,41.666668
1600982329.621317,35.000000,0.000000,3907.179443,4609.230957,4272.307617,4246.153809,3922.564209,4608.205078,3957.435791,3865.641113,4314.358887,4029.230713,4226.666504,4152.820313,4064.102539,3982.051270,0.000000,4.000000,,,,0.000000,4.000000,4.000000,4.000000,4.000000,4.000000,4.000000,4.000000,4.000000,4.000000,4.000000,2.000000,2.000000,4.000000,1.000000,41.666668
1600982329.629237,36.000000,0.000000,3909.230713,4610.256348,4270.256348,4256.410156,3935.384521,4619.487305,3962.564209,3868.718018,4329.230957,4022.564209,4232.307617,4150.769043,4067.179443,3982.051270,0.000000,4.000000,,,,0.000000,4.000000,4.000000,4.000000,4.000000,4.000000,4.000000,4.000000,4.000000,4.000000,4.000000,2.000000,2.000000,4.000000,1.000000,41.666668
1600982329.637058,37.000000,0.000000,3909.230713,4611.794922,4267.692383,4256.410156,3939.487061,4623.589844,3966.666748,3873.333252,4327.179688,4034.358887,4230.256348,4147.179688,4066.666748,3982.051270,0.000000,4.000000,,,,0.000000,4.000000,4.000000,4.000000,4.000000,4.000000,4.000000,4.000000,4.000000,4.000000,4.000000,2.000000,2.000000,4.000000,1.000000,41.666668
1600982329.644978,38.000000,0.000000,3906.666748,4616.410156,4262.563965,4250.769043,3933.846191,4618.974121,3967.179443,3872.307617,4315.384766,4051.281982,4232.307617,4145.641113,4070.769287,3982.564209,0.000000,4.000000,,,,0.000000,4.000000,4.000000,4.000000,4.000000,4.000000,4.000000,4.000000,4.000000,4.000000,4.000000,2.000000,2.000000,4.000000,1.000000,41.666668
1600982329.652799,39.000000,0.000000,3906.666748,4616.922852,4261.538574,4249.743652,3931.281982,4618.461426,3967.692383,3873.846191,4318.461426,4048.205078,4235.384766,4152.307617,4074.871826,3982.564209,0.000000,4.000000,,,,0.000000,4.000000,4.000000,4.000000,4.000000,4.000000,4.000000,4.000000,4.000000,4.000000,4.000000,2.000000,2.000000,4.000000,1.000000,41.666668
1600982329.660719,40.000000,0.000000,3911.281982,4614.871582,4261.538574,4249.743652,3932.820557,4623.077148,3970.769287,3878.974365,4327.179688,4034.871826,4230.769043,4157.436035,4071.281982,3982.564209,0.000000,4.000000,,,,0.000000,4.000000,4.000000,4.000000,4.000000,4.000000,4.000000,4.000000,4.000000,4.000000,4.000000,2.000000,2.000000,4.000000,1.000000,41.666668
1600982329.668540,41.000000,0.000000,3914.871826,4615.384766,4255.897461,4249.230957,3931.794922,4625.641113,3973.333252,3880.000000,4323.077148,4038.461426,4226.153809,4152.307617,4070.256348,3982.051270,0.000000,4.000000,,,,0.000000,4.000000,4.000000,4.000000,4.000000,4.000000,4.000000,4.000000,4.000000,4.000000,4.000000,2.000000,2.000000,4.000000,1.000000,41.666668
1600982329.676461,42.000000,0.000000,3908.205078,4612.820313,4246.153809,4245.128418,3927.692383,4618.974121,3970.769287,3874.871826,4312.820313,4041.538574,4226.153809,4146.153809,4068.205078,3983.076904,0.000000,4.000000,,,,0.000000,4.000000,4.000000,4.000000,4.000000,4.000000,4.000000,4.000000,4.000000,4.000000,4.000000,2.000000,2.000000,4.000000,1.000000,41.666668
1600982329.684281,43.000000,0.000000,3900.512939,4607.692383,4244.102539,4243.077148,3924.615479,4610.769043,3964.102539,3867.692383,4309.743652,4029.743652,4225.128418,4149.230957,4063.076904,3984.102539,0.000000,4.000000,,,,0.000000,4.000000,4.000000,4.000000,4.000000,4.000000,4.000000,4.000000,4.000000,4.000000,4.000000,2.000000,2.000000,4.000000,1.000000,41.666668
1600982329.692002,44.000000,0.000000,3906.153809,4611.794922,4248.717773,4251.794922,3934.358887,4621.025879,3960.000000,3866.666748,4317.948730,4028.718018,4226.666504,4151.794922,4065.641113,3983.076904,0.000000,4.000000,,,,0.000000,4.000000,4.000000,4.000000,4.000000,4.000000,4.000000,4.000000,4.000000,4.000000,4.000000,2.000000,2.000000,4.000000,1.000000,41.666668
1600982329.699822,45.000000,0.000000,3904.102539,4608.205078,4240.512695,4249.743652,3935.897461,4625.128418,3960.512939,3869.743652,4318.461426,4029.743652,4223.589844,4145.641113,4062.564209,3980.000000,0.000000,4.000000,,,,0.000000,4.000000,4.000000,4.000000,4.000000,4.000000,4.000000,4.000000,4.000000,4.000000,4.000000,2.000000,2.000000,4.000000,1.000000,41.666668
1600982329.707543,46.000000,0.000000,3893.846191,4595.384766,4234.358887,4237.436035,3922.051270,4611.794922,3962.564209,3873.333252,4311.794922,4024.615479,4219.487305,4145.128418,4055.384521,3980.000000,0.000000,4.000000,,,,0.000000,4.000000,4.000000,4.000000,4.000000,4.000000,4.000000,4.000000,4.000000,4.000000,4.000000,2.000000,2.000000,4.000000,1.000000,41.666668
1600982329.715364,47.000000,0.000000,3898.461426,4599.487305,4244.102539,4244.615234,3921.538574,4611.794922,3963.589844,3874.871826,4314.358887,4028.205078,4226.153809,4153.846191,4063.076904,3983.076904,0.000000,4.000000,,,,0.000000,4.000000,4.000000,4.000000,4.000000,4.000000,4.000000,4.000000,4.000000,4.000000,4.000000,2.000000,2.000000,4.000000,1.000000,41.666668
1600982329.723084,48.000000,0.000000,3909.230713,4614.358887,4250.256348,4258.974121,3937.435791,4624.615234,3966.666748,3876.923096,4326.153809,4037.435791,4236.922852,4156.922852,4072.820557,3985.641113,0.000000,4.000000,,,,0.000000,4.000000,4.000000,4.000000,4.000000,4.000000,4.000000,4.000000,4.000000,4.000000,4.000000,2.000000,2.000000,4.000000,1.000000,41.666668
1600982329.730905,49.000000,0.000000,3905.128174,4612.820313,4245.128418,4255.897461,3938.461426,4622.563965,3968.718018,3877.435791,4326.666504,4030.256348,4237.436035,4155.384766,4070.256348,3986.153809,0.000000,4.000000,,,,0.000000,4.000000,4.000000,4.000000,4.000000,4.000000,4.000000,4.000000,4.000000,4.000000,4.000000,2.000000,2.000000,4.000000,1.000000,41.666668
1600982329.738626,50.000000,0.000000,3897.948730,4603.077148,4241.538574,4251.794922,3931.794922,4613.846191,3965.641113,3875.897461,4318.974121,4019.487061,4236.410156,4156.410156,4068.205078,3985.128174,0.000000,4.000000,,,,0.000000,4.000000,4.000000,4.000000,4.000000,4.000000,4.000000,4.000000,4.000000,4.000000,4.000000,2.000000,2.000000,4.000000,1.000000,41.666668
1600982329.746446,51.000000,0.000000,3893.333252,4601.538574,4236.922852,4252.307617,3930.256348,4615.384766,3962.564209,3873.846191,4315.384766,4022.051270,4235.897461,4152.820313,4069.230713,3982.564209,0.000000,4.000000,,,,0.000000,4.000000,4.000000,4.000000,4.000000,4.000000,4.000000,4.000000,4.000000,4.000000,4.000000,2.000000,2.000000,4.000000,1.000000,41.666668
1600982329.754167,52.000000,0.000000,3888.718018,4604.615234,4228.717773,4251.794922,3935.384521,4623.077148,3968.718018,3876.410156,4321.025879,4030.769287,4230.256348,4146.666504,4069.230713,3979.487061,0.000000,4.000000,,,,0.000000,4.000000,4.000000,4.000000,4.000000,4.000000,4.000000,4.000000,4.000000,4.000000,4.000000,2.000000,2.000000,4.000000,1.000000,41.666668
1600982329.761988,53.000000,0.000000,3878.461426,4597.948730,4221.538574,4244.102539,3937.435791,4620.512695,3965.641113,3874.871826,4322.563965,4026.666748,4223.589844,4145.128418,4063.589844,3978.974365,0.000000,4.000000,,,,0.000000,4.000000,4.000000,4.000000,4.000000,4.000000,4.000000,4.000000,4.000000,4.000000,4.000000,2.000000,2.000000,4.000000,1.000000,41.666668
1600982329.769708,54.000000,0.000000,3870.769287,4594.871582,4216.922852,4240.000000,3933.846191,4614.358887,3957.435791,3871.281982,4316.922852,4015.897461,4222.563965,4145.641113,4059.487061,3977.435791,0.000000,4.000000,,,,0.000000,4.000000,4.000000,4.000000,4.000000,4.000000,4.000000,4.000000,4.000000,4.000000,4.000000,2.000000,2.000000,4.000000,1.000000,41.666668
1600982329.777529,55.000000,0.000000,3876.923096,4606.666504,4219.487305,4246.153809,3935.897461,4620.512695,3963.076904,3871.794922,4315.384766,4020.512939,4224.615234,4145.128418,4061.538574,3977.435791,0.000000,4.000000,,,,0.000000,4.000000,4.000000,4.000000,4.000000,4.000000,4.000000,4.000000,4.000000,4.000000,4.000000,2.000000,2.000000,4.000000,1.000000,41.666668
1600982329.785250,56.000000,0.000000,3882.564209,4613.333496,4223.077148,4251.794922,3945.128174,4630.769043,3971.794922,3871.281982,4315.897461,4031.281982,4225.641113,4146.153809,4066.666748,3982.564209,0.000000,4.000000,,,,0.000000,4.000000,4.000000,4.000000,4.000000,4.000000,4.000000,4.000000,4.000000,4.000000,4.000000,2.000000,2.000000,4.000000,1.000000,41.666668
1600982329.793170,57.000000,0.000000,3874.871826,4602.563965,4218.461426,4244.615234,3942.051270,4625.128418,3965.641113,3871.281982,4311.794922,4029.230713,4225.641113,4144.615234,4065.128174,3984.102539,0.000000,4.000000,,,,0.000000,4.000000,4.000000,4.000000,4.000000,4.000000,4.000000,4.000000,4.000000,4.000000,4.000000,2.000000,2.000000,4.000000,1.000000,41.666668
1600982329.800991,58.000000,0.000000,3873.333252,4602.051270,4217.436035,4243.077148,3935.384521,4618.461426,3962.564209,3877.948730,4315.897461,4024.615479,4226.153809,4145.641113,4066.666748,3981.025635,0.000000,4.000000,,,,0.000000,4.000000,4.000000,4.000000,4.000000,4.000000,4.000000,4.000000,4.000000,4.000000,4.000000,2.000000,2.000000,4.000000,1.000000,41.666668
1600982329.808911,59.000000,0.000000,3882.051270,4614.871582,4220.512695,4249.743652,3940.000000,4620.512695,3962.564209,3874.871826,4318.461426,4022.564209,4226.666504,4150.769043,4071.281982,3981.538574,0.000000,4.000000,,,,0.000000,4.000000,4.000000,4.000000,4.000000,4.000000,4.000000,4.000000,4.000000,4.000000,4.000000,2.000000,2.000000,4.000000,1.000000,41.666668
1600982329.816732,60.000000,0.000000,3876.923096,4610.256348,4212.820313,4244.102539,3936.923096,4616.922852,3952.307617,3864.102539,4306.666504,4015.384521,4222.563965,4148.205078,4067.692383,3982.051270,0.000000,4.000000,,,,0.000000,4.000000,4.000000,4.000000,4.000000,4.000000,4.000000,4.000000,4.000000,4.000000,4.000000,2.000000,2.000000,4.000000,1.000000,41.666668
1600982329.824652,61.000000,0.000000,3874.358887,4604.102539,4209.230957,4239.487305,3933.333252,4612.820313,3952.820557,3870.769287,4305.641113,4017.435791,4225.128418,4146.666504,4067.179443,3983.076904,0.000000,4.000000,,,,0.000000,4.000000,4.000000,4.000000,4.000000,4.000000,4.000000,4.000000,4.000000,4.000000,4.000000,2.000000,2.000000,4.000000,1.000000,41.666668
1600982329.832473,62.000000,0.000000,3881.538574,4607.179688,4211.282227,4242.563965,3935.897461,4607.692383,3962.564209,3877.435791,4314.871582,4022.564209,4229.743652,4151.794922,4069.743652,3985.641113,0.000000,4.000000,,,,0.000000,4.000000,4.000000,4.000000,4.000000,4.000000,4.000000,4.000000,4.000000,4.000000,4.000000,2.000000,2.000000,4.000000,1.000000,41.666668
1600982329.840394,63.000000,0.000000,3880.000000,4607.179688,4207.179688,4240.512695,3933.333252,4607.692383,3960.512939,3867.179443,4307.179688,4018.974365,4225.128418,4151.282227,4067.179443,3985.128174,0.000000,4.000000,,,,0.000000,4.000000,4.000000,4.000000,4.000000,4.000000,4.000000,4.000000,4.000000,4.000000,4.000000,2.000000,2.000000,4.000000,1.000000,41.666668
1600982329.848214,64.000000,0.000000,3876.923096,4604.615234,4202.051270,4241.538574,3928.205078,4611.282227,3952.820557,3860.000000,4295.897461,4015.897461,4220.512695,4144.615234,4060.000000,3984.615479,414.000000,4.000000,,,,0.000000,4.000000,4.000000,4.000000,4.000000,4.000000,4.000000,4.000000,4.000000,4.000000,4.000000,2.000000,2.000000,4.000000,1.000000,41.666668
1600982329.856135,65.000000,0.000000,3888.718018,4613.846191,4211.282227,4253.846191,3938.974365,4613.333496,3959.487061,3867.179443,4304.102539,4024.615479,4222.563965,4144.102539,4064.102539,3986.153809,437.000000,4.000000,,,,0.000000,4.000000,4.000000,4.000000,4.000000,4.000000,4.000000,4.000000,4.000000,4.000000,4.000000,2.000000,2.000000,4.000000,1.000000,41.666668
1600982329.863955,66.000000,0.000000,3894.871826,4622.051270,4215.897461,4255.384766,3950.769287,4618.974121,3966.666748,3871.794922,4308.717773,4027.692383,4225.641113,4149.743652,4072.307617,3987.179443,452.000000,4.000000,,,,0.000000,4.000000,4.000000,4.000000,4.000000,4.000000,4.000000,4.000000,4.000000,4.000000,4.000000,2.000000,2.000000,4.000000,1.000000,41.666668
1600982329.871876,67.000000,0.000000,3889.743652,4623.589844,4209.230957,4251.282227,3947.179443,4627.692383,3963.076904,3870.769287,4305.128418,4026.666748,4230.769043,4152.820313,4073.333252,3987.179443,456.000000,4.000000,,,,0.000000,4.000000,4.000000,4.000000,4.000000,4.000000,4.000000,4.000000,4.000000,4.000000,4.000000,2.000000,2.000000,4.000000,1.000000,41.666668
1600982329.879696,68.000000,0.000000,3888.205078,4623.589844,4204.102539,4255.897461,3940.000000,4622.563965,3958.974365,3868.718018,4306.153809,4030.256348,4232.307617,4152.307617,4069.743652,3986.666748,468.000000,4.000000,,,,0.000000,4.000000,4.000000,4.000000,4.000000,4.000000,4.000000,4.000000,4.000000,4.000000,4.000000,2.000000,2.000000,4.000000,1.000000,41.666668
1600982329.887417,69.000000,0.000000,3889.230713,4619.487305,4203.077148,4254.871582,3938.461426,4613.846191,3959.487061,3871.281982,4307.179688,4030.256348,4227.692383,4151.282227,4067.179443,3982.051270,443.000000,4.000000,,,,0.000000,4.000000,4.000000,4.000000,4.000000,4.000000,4.000000,4.000000,4.000000,4.000000,4.000000,2.000000,2.000000,4.000000,1.000000,41.666668
1600982329.895238,70.000000,0.000000,3889.743652,4618.974121,4199.487305,4249.230957,3939.487061,4620.000000,3958.974365,3878.461426,4308.205078,4026.666748,4227.692383,4150.256348,4067.692383,3978.974365,439.000000,4.000000,,,,0.000000,4.000000,4.000000,4.000000,4.000000,4.000000,4.000000,4.000000,4.000000,4.000000,4.000000,2.000000,2.000000,4.000000,1.000000,41.666668
1600982329.902958,71.000000,0.000000,3892.820557,4624.102539,4197.436035,4253.333496,3945.128174,4624.615234,3957.948730,3877.948730,4311.282227,4026.666748,4231.794922,4151.282227,4071.281982,3980.000000,392.000000,4.000000,,,,0.000000,4.000000,4.000000,4.000000,4.000000,4.000000,4.000000,4.000000,4.000000,4.000000,4.000000,2.000000,2.000000,4.000000,1.000000,41.666668
1600982329.910779,72.000000,0.000000,3891.281982,4623.077148,4199.487305,4255.384766,3948.718018,4613.333496,3959.487061,3871.281982,4312.307617,4027.179443,4235.897461,4154.358887,4074.871826,3980.000000,399.000000,4.000000,,,,0.000000,4.000000,4.000000,4.000000,4.000000,4.000000,4.000000,4.000000,4.000000,4.000000,4.000000,2.000000,2.000000,4.000000,1.000000,41.666668
1600982329.918500,73.000000,0.000000,3890.769287,4617.436035,4200.512695,4251.794922,3945.641113,4613.333496,3962.564209,3872.820557,4315.897461,4032.820557,4240.000000,4157.436035,4076.923096,3976.923096,405.000000,4.000000,,,,0.000000,4.000000,4.000000,4.000000,4.000000,4.000000,4.000000,4.000000,4.000000,4.000000,4.000000,2.000000,2.000000,4.000000,1.000000,41.666668
1600982329.926320,74.000000,0.000000,3897.435791,4618.974121,4200.000000,4253.333496,3951.281982,4625.641113,3965.128174,3876.923096,4320.000000,4042.051270,4237.948730,4155.897461,4074.871826,3976.923096,434.000000,4.000000,,,,0.000000,4.000000,4.000000,4.000000,4.000000,4.000000,4.000000,4.000000,4.000000,4.000000,4.000000,2.000000,2.000000,4.000000,1.000000,41.666668
1600982329.934041,75.000000,0.000000,3900.512939,4618.461426,4197.948730,4253.333496,3957.435791,4623.077148,3962.051270,3872.820557,4314.358887,4036.410156,4233.333496,4151.794922,4068.718018,3975.384521,125.000000,4.000000,,,,0.000000,4.000000,4.000000,4.000000,4.000000,4.000000,4.000000,4.000000,4.000000,4.000000,4.000000,2.000000,2.000000,4.000000,1.000000,41.666668
1600982329.941862,76.000000,0.000000,3896.410156,4614.358887,4192.820313,4247.179688,3947.692383,4611.282227,3952.820557,3869.743652,4307.179688,4024.615479,4232.307617,4148.205078,4062.051270,3971.794922,316.000000,4.000000,,,,0.000000,4.000000,4.000000,4.000000,4.000000,4.000000,4.000000,4.000000,4.000000,4.000000,4.000000,2.000000,2.000000,4.000000,1.000000,41.666668
1600982329.949582,77.000000,0.000000,3895.897461,4618.974121,4190.256348,4246.666504,3942.051270,4613.846191,3953.846191,3879.487061,4314.358887,4028.205078,4231.794922,4148.717773,4064.615479,3973.333252,300.000000,4.000000,,,,0.000000,4.000000,4.000000,4.000000,4.000000,4.000000,4.000000,4.000000,4.000000,4.000000,4.000000,2.000000,2.000000,4.000000,1.000000,41.666668
1600982329.957403,78.000000,0.000000,3902.051270,4621.538574,4194.871582,4252.820313,3954.871826,4623.589844,3968.205078,3889.230713,4324.102539,4037.948730,4235.384766,4154.358887,4074.871826,3976.923096,434.000000,4.000000,,,,0.000000,4.000000,4.000000,4.000000,4.000000,4.000000,4.000000,4.000000,4.000000,4.000000,4.000000,2.000000,2.000000,4.000000,1.000000,41.666668
1600982329.965124,79.000000,0.000000,3901.538574,4614.358887,4195.384766,4253.333496,3957.948730,4627.692383,3971.794922,3881.538574,4319.487305,4035.384521,4238.461426,4159.487305,4075.384521,3975.384521,125.000000,4.000000,,,,0.000000,4.000000,4.000000,4.000000,4.000000,4.000000,4.000000,4.000000,4.000000,4.000000,4.000000,2.000000,2.000000,4.000000,1.000000,41.666668
1600982329.973044,80.000000,0.000000,3891.794922,4609.743652,4184.615234,4246.153809,3949.230713,4624.102539,3958.974365,3869.230713,4303.077148,4028.205078,4229.743652,4153.846191,4062.564209,3972.820557,316.000000,4.000000,,,,0.000000,4.000000,4.000000,4.000000,4.000000,4.000000,4.000000,4.000000,4.000000,4.000000,4.000000,2.000000,2.000000,4.000000,1.000000,41.666668
1600982329.980865,81.000000,0.000000,3883.589844,4608.205078,4177.948730,4240.000000,3943.589844,4611.794922,3952.307617,3867.179443,4295.384766,4021.025635,4218.974121,4145.128418,4051.794922,3971.281982,300.000000,4.000000,,,,0.000000,4.000000,4.000000,4.000000,4.000000,4.000000,4.000000,4.000000,4.000000,4.000000,4.000000,2.000000,2.000000,4.000000,1.000000,41.666668
1600982329.988785,82.000000,0.000000,3894.871826,4614.871582,4188.717773,4249.230957,3950.256348,4612.820313,3964.102539,3876.410156,4310.769043,4030.769287,4224.102539,4152.820313,4063.589844,3973.333252,434.000000,4.000000,,,,0.000000,4.000000,4.000000,4.000000,4.000000,4.000000,4.000000,4.000000,4.000000,4.000000,4.000000,2.000000,2.000000,4.000000,1.000000,41.666668
1600982329.996606,83.000000,0.000000,3907.179443,4625.641113,4197.436035,4257.948730,3956.410156,4623.077148,3971.281982,3880.000000,4317.436035,4044.102539,4234.358887,4165.641113,4078.461426,3981.025635,125.000000,4.000000,,,,0.000000,4.000000,4.000000,4.000000,4.000000,4.000000,4.000000,4.000000,4.000000,4.000000,4.000000,2.000000,2.000000,4.000000,1.000000,41.666668
1600982330.004526,84.000000,0.000000,3905.128174,4625.641113,4192.307617,4254.871582,3954.358887,4621.025879,3964.102539,3877.435791,4309.743652,4034.871826,4236.922852,4160.000000,4076.923096,3979.487061,316.000000,4.000000,,,,0.000000,4.000000,4.000000,4.000000,4.000000,4.000000,4.000000,4.000000,4.000000,4.000000,4.000000,2.000000,2.000000,4.000000,1.000000,41.666668
1600982330.012347,85.000000,0.000000,3895.384521,4612.820313,4183.077148,4247.692383,3950.769287,4616.410156,3954.871826,3876.410156,4308.717773,4018.461426,4230.256348,4146.666504,4063.589844,3969.230713,300.000000,4.000000,,,,0.000000,4.000000,4.000000,4.000000,4.000000,4.000000,4.000000,4.000000,4.000000,4.000000,4.000000,2.000000,2.000000,4.000000,1.000000,41.666668
1600982330.020268,86.000000,0.000000,3889.230713,4607.179688,4178.461426,4245.128418,3952.307617,4617.948730,3952.307617,3873.846191,4309.230957,4021.025635,4224.102539,4148.717773,4055.897461,3966.153809,434.000000,4.000000,,,,0.000000,4.000000,4.000000,4.000000,4.000000,4.000000,4.000000,4.000000,4.000000,4.000000,4.000000,2.000000,2.000000,4.000000,1.000000,41.666668
1600982330.028088,87.000000,0.000000,3888.718018,4611.794922,4176.410156,4241.538574,3949.743652,4608.717773,3953.846191,3867.179443,4300.000000,4029.743652,4225.128418,4156.922852,4060.000000,3970.769287,125.000000,4.000000,,,,0.000000,4.000000,4.000000,4.000000,4.000000,4.000000,4.000000,4.000000,4.000000,4.000000,4.000000,2.000000,2.000000,4.000000,1.000000,41.666668
1600982330.036009,88.000000,0.000000,3896.410156,4616.410156,4179.487305,4244.102539,3947.179443,4601.025879,3960.512939,3869.743652,4300.512695,4032.307617,4230.256348,4160.000000,4069.743652,3971.281982,316.000000,4.000000,,,,0.000000,4.000000,4.000000,4.000000,4.000000,4.000000,4.000000,4.000000,4.000000,4.000000,4.000000,2.000000,2.000000,4.000000,1.000000,41.666668
1600982330.043829,89.000000,0.000000,3903.589844,4615.897461,4185.128418,4251.794922,3955.897461,4613.333496,3967.179443,3883.589844,4312.820313,4031.281982,4231.282227,4157.436035,4070.256348,3970.256348,300.000000,4.000000,,,,0.000000,4.000000,4.000000,4.000000,4.000000,4.000000,4.000000,4.000000,4.000000,4.000000,4.000000,2.000000,2.000000,4.000000,1.000000,41.666668
1600982330.051750,90.000000,0.000000,3901.538574,4612.307617,4183.589844,4249.743652,3962.564209,4620.000000,3965.128174,3885.128174,4310.769043,4028.718018,4226.153809,4154.871582,4062.564209,3972.820557,434.000000,4.000000,,,,0.000000,4.000000,4.000000,4.000000,4.000000,4.000000,4.000000,4.000000,4.000000,4.000000,4.000000,2.000000,2.000000,4.000000,1.000000,41.666668
1600982330.059570,91.000000,0.000000,3901.025635,4615.897461,4177.436035,4247.692383,3961.538574,4618.461426,3964.615479,3877.948730,4305.641113,4030.769287,4227.179688,4158.974121,4065.128174,3976.410156,125.000000,4.000000,,,,0.000000,4.000000,4.000000,4.000000,4.000000,4.000000,4.000000,4.000000,4.000000,4.000000,4.000000,2.000000,2.000000,4.000000,1.000000,41.666668
1600982330.067291,92.000000,0.000000,3900.000000,4617.948730,4170.256348,4249.743652,3964.102539,4623.589844,3966.153809,3876.923096,4310.769043,4031.281982,4229.743652,4158.461426,4070.769287,3972.307617,316.000000,4.000000,,,,0.000000,4.000000,4.000000,4.000000,4.000000,4.000000,4.000000,4.000000,4.000000,4.000000,4.000000,2.000000,2.000000,4.000000,1.000000,41.666668
1600982330.075112,93.000000,0.000000,3893.846191,4609.230957,4163.589844,4243.589844,3961.025635,4619.487305,3958.974365,3876.923096,4311.282227,4026.153809,4225.128418,4150.256348,4063.076904,3965.128174,300.000000,4.000000,,,,0.000000,4.000000,4.000000,4.000000,4.000000,4.000000,4.000000,4.000000,4.000000,4.000000,4.000000,2.000000,2.000000,4.000000,1.000000,41.666668
1600982330.082832,94.000000,0.000000,3892.307617,4603.077148,4164.615234,4236.922852,3951.281982,4604.102539,3953.846191,3873.333252,4302.051270,4024.102539,4222.051270,4150.769043,4055.897461,3968.718018,434.000000,4.000000,,,,0.000000,4.000000,4.000000,4.000000,4.000000,4.000000,4.000000,4.000000,4.000000,4.000000,4.000000,2.000000,2.000000,4.000000,1.000000,41.666668
1600982330.090653,95.000000,0.000000,3906.666748,4615.384766,4177.436035,4247.179688,3957.435791,4606.666504,3962.564209,3877.435791,4306.666504,4032.307617,4233.333496,4162.563965,4070.769287,3978.461426,125.000000,4.000000,,,,0.000000,4.000000,4.000000,4.000000,4.000000,4.000000,4.000000,4.000000,4.000000,4.000000,4.000000,2.000000,2.000000,4.000000,1.000000,41.666668
1600982330.098374,96.000000,0.000000,3912.307617,4623.077148,4182.563965,4253.333496,3965.128174,4618.974121,3965.128174,3884.615479,4317.436035,4038.461426,4242.051270,4166.666504,4083.589844,3981.025635,316.000000,4.000000,,,,0.000000,4.000000,4.000000,4.000000,4.000000,4.000000,4.000000,4.000000,4.000000,4.000000,4.000000,2.000000,2.000000,4.000000,1.000000,41.666668
1600982330.106194,97.000000,0.000000,3905.641113,4621.025879,4178.461426,4250.769043,3966.153809,4620.512695,3962.564209,3886.666748,4320.512695,4042.564209,4243.077148,4165.641113,4080.512939,3978.461426,300.000000,4.000000,,,,0.000000,4.000000,4.000000,4.000000,4.000000,4.000000,4.000000,4.000000,4.000000,4.000000,4.000000,2.000000,2.000000,4.000000,1.000000,41.666668
1600982330.113915,98.000000,0.000000,3905.128174,4618.461426,4177.436035,4251.794922,3965.128174,4618.974121,3964.615479,3886.666748,4315.384766,4042.051270,4242.563965,4167.692383,4073.333252,3978.461426,434.000000,4.000000,,,,0.000000,4.000000,4.000000,4.000000,4.000000,4.000000,4.000000,4.000000,4.000000,4.000000,4.000000,2.000000,2.000000,4.000000,1.000000,41.666668
1600982330.121836,99.000000,0.000000,3904.102539,4612.307617,4176.922852,4250.256348,3956.410156,4615.897461,3961.538574,3883.589844,4307.692383,4031.281982,4237.436035,4165.641113,4068.205078,3976.410156,125.000000,4.000000,,,,0.000000,4.000000,4.000000,4.000000,4.000000,4.000000,4.000000,4.000000,4.000000,4.000000,4.000000,2.000000,2.000000,4.000000,1.000000,41.666668
1600982330.129657,100.000000,0.000000,3895.897461,4602.563965,4171.282227,4244.102539,3947.179443,4605.641113,3955.897461,3872.307617,4303.589844,4022.564209,4232.820313,4161.538574,4062.051270,3976.410156,316.000000,4.000000,,,,0.000000,4.000000,4.000000,4.000000,4.000000,4.000000,4.000000,4.000000,4.000000,4.000000,4.000000,2.000000,2.000000,4.000000,1.000000,41.666668
1600982330.137477,101.000000,0.000000,3898.974365,4607.692383,4170.769043,4249.230957,3955.384521,4609.743652,3960.512939,3868.718018,4308.205078,4030.769287,4238.461426,4164.102539,4065.641113,3980.000000,300.000000,4.000000,,,,0.000000,4.000000,4.000000,4.000000,4.000000,4.000000,4.000000,4.000000,4.000000,4.000000,4.000000,2.000000,2.000000,4.000000,1.000000,41.666668
1600982330.145198,102.000000,0.000000,3910.256348,4621.025879,4174.358887,4255.897461,3960.000000,4617.948730,3964.102539,3876.410156,4309.230957,4035.897461,4240.512695,4166.153809,4070.256348,3982.051270,434.000000,4.000000,,,,0.000000,4.000000,4.000000,4.000000,4.000000,4.000000,4.000000,4.000000,4.000000,4.000000,4.000000,2.000000,2.000000,4.000000,1.000000,41.666668
1600982330.153119,103.000000,0.000000,3910.769287,4625.128418,4174.871582,4253.333496,3952.820557,4611.794922,3958.974365,3882.051270,4306.666504,4030.256348,4236.410156,4162.051270,4066.153809,3978.974365,125.000000,4.000000,,,,0.000000,4.000000,4.000000,4.000000,4.000000,4.000000,4.000000,4.000000,4.000000,4.000000,4.000000,2.000000,2.000000,4.000000,1.000000,41.666668
1600982330.160939,104.000000,0.000000,3905.641113,4619.487305,4173.846191,4246.666504,3950.769287,4606.153809,3956.410156,3877.948730,4307.179688,4030.256348,4234.871582,4158.974121,4061.025635,3980.000000,316.000000,4.000000,,,,0.000000,4.000000,4.000000,4.000000,4.000000,4.000000,4.000000,4.000000,4.000000,4.000000,4.000000,2.000000,2.000000,4.000000,1.000000,41.666668
1600982330.168860,105.000000,0.000000,3905.128174,4611.794922,4171.282227,4240.512695,3951.281982,4608.205078,3958.461426,3872.307617,4301.025879,4031.794922,4230.769043,4160.000000,4055.897461,3977.948730,300.000000,4.000000,,,,0.000000,4.000000,4.000000,4.000000,4.000000,4.000000,4.000000,4.000000,4.000000,4.000000,4.000000,2.000000,2.000000,4.000000,1.000000,41.666668
1600982330.176680,106.000000,0.000000,3903.076904,4612.307617,4168.717773,4242.563965,3953.846191,4610.769043,3960.000000,3870.769287,4294.358887,4025.128174,4224.102539,4157.436035,4052.307617,3972.820557,434.000000,4.000000,,,,0.000000,4.000000,4.000000,4.000000,4.000000,4.000000,4.000000,4.000000,4.000000,4.000000,4.000000,2.000000,2.000000,4.000000,1.000000,41.666668
1600982330.184601,107.000000,0.000000,3902.051270,4616.922852,4169.743652,4249.743652,3960.512939,4612.307617,3958.461426,3871.281982,4299.487305,4022.564209,4227.692383,4152.820313,4055.897461,3973.846191,125.000000,4.000000,,,,0.000000,4.000000,4.000000,4.000000,4.000000,4.000000,4.000000,4.000000,4.000000,4.000000,4.000000,2.000000,2.000000,4.000000,1.000000,41.666668
1600982330.192421,108.000000,0.000000,3909.230713,4617.948730,4172.307617,4254.358887,3965.641113,4614.358887,3961.025635,3878.974365,4309.743652,4029.230713,4233.846191,4156.410156,4061.025635,3979.487061,316.000000,4.000000,,,,0.000000,4.000000,4.000000,4.000000,4.000000,4.000000,4.000000,4.000000,4.000000,4.000000,4.000000,2.000000,2.000000,4.000000,1.000000,41.666668
1600982330.200342,109.000000,0.000000,3912.307617,4616.922852,4170.769043,4252.820313,3966.153809,4613.846191,3968.718018,3886.153809,4314.358887,4033.846191,4233.333496,4164.102539,4060.512939,3980.512939,300.000000,4.000000,,,,0.000000,4.000000,4.000000,4.000000,4.000000,4.000000,4.000000,4.000000,4.000000,4.000000,4.000000,2.000000,2.000000,4.000000,1.000000,41.666668
1600982330.208163,110.000000,0.000000,3905.128174,4609.230957,4163.589844,4249.230957,3961.538574,4612.307617,3966.666748,3880.512939,4311.282227,4037.435791,4230.769043,4163.077148,4061.025635,3976.923096,434.000000,4.000000,,,,0.000000,4.000000,4.000000,4.000000,4.000000,4.000000,4.000000,4.000000,4.000000,4.000000,4.000000,2.000000,2.000000,4.000000,1.000000,41.666668
1600982330.216083,111.000000,0.000000,3903.589844,4603.589844,4157.436035,4248.717773,3959.487061,4614.871582,3960.000000,3873.846191,4311.282227,4040.512939,4233.333496,4159.487305,4066.153809,3975.384521,125.000000,4.000000,,,,0.000000,4.000000,4.000000,4.000000,4.000000,4.000000,4.000000,4.000000,4.000000,4.000000,4.000000,2.000000,2.000000,4.000000,1.000000,41.666668
1600982330.223904,112.000000,0.000000,3914.358887,4615.384766,4161.538574,4254.358887,3968.718018,4616.410156,3963.076904,3881.538574,4320.000000,4042.051270,4238.461426,4163.077148,4070.769287,3977.948730,316.000000,4.000000,,,,0.000000,4.000000,4.000000,4.000000,4.000000,4.000000,4.000000,4.000000,4.000000,4.000000,4.000000,2.000000,2.000000,4.000000,1.000000,41.666668
1600982330.231824,113.000000,0.000000,3914.358887,4626.153809,4164.615234,4255.897461,3969.743652,4609.743652,3965.128174,3886.153809,4321.025879,4041.025635,4235.897461,4164.102539,4069.230713,3981.025635,300.000000,4.000000,,,,0.000000,4.000000,4.000000,4.000000,4.000000,4.000000,4.000000,4.000000,4.000000,4.000000,4.000000,2.000000,2.000000,4.000000,1.000000,41.666668
1600982330.239645,114.000000,0.000000,3907.692383,4622.051270,4161.025879,4253.846191,3962.051270,4611.794922,3960.512939,3881.025635,4312.307617,4044.102539,4233.333496,4162.563965,4068.205078,3978.461426,434.000000,4.000000,,,,0.000000,4.000000,4.000000,4.000000,4.000000,4.000000,4.000000,4.000000,4.000000,4.000000,4.000000,2.000000,2.000000,4.000000,1.000000,41.666668
1600982330.247366,115.000000,0.000000,3906.153809,4613.333496,4155.384766,4250.256348,3958.461426,4615.897461,3956.410156,3873.333252,4303.589844,4040.000000,4231.794922,4163.589844,4060.000000,3974.871826,125.000000,4.000000,,,,0.000000,4.000000,4.000000,4.000000,4.000000,4.000000,4.000000,4.000000,4.000000,4.000000,4.000000,2.000000,2.000000,4.000000,1.000000,41.666668
1600982330.255186,116.000000,0.000000,3907.692383,4616.410156,4155.384766,4249.230957,3958.974365,4608.205078,3957.435791,3872.820557,4302.563965,4023.589844,4226.153809,4161.025879,4048.718018,3973.846191,316.000000,4.000000,,,,0.000000,4.000000,4.000000,4.000000,4.000000,4.000000,4.000000,4.000000,4.000000,4.000000,4.000000,2.000000,2.000000,4.000000,1.000000,41.666668
1600982330.262907,117.000000,0.000000,3910.256348,4622.051270,4159.487305,4250.256348,3959.487061,4606.153809,3958.461426,3877.948730,4305.641113,4015.384521,4222.051270,4158.461426,4050.256348,3976.410156,300.000000,4.000000,,,,0.000000,4.000000,4.000000,4.000000,4.000000,4.000000,4.000000,4.000000,4.000000,4.000000,4.000000,2.000000,2.000000,4.000000,1.000000,41.666668
1600982330.270727,118.000000,0.000000,3916.923096,4623.077148,4162.563965,4253.333496,3964.615479,4616.410156,3958.974365,3878.974365,4307.692383,4027.179443,4227.179688,4163.077148,4063.589844,3979.487061,434.000000,4.000000,,,,0.000000,4.000000,4.000000,4.000000,4.000000,4.000000,4.000000,4.000000,4.000000,4.000000,4.000000,2.000000,2.000000,4.000000,1.000000,41.666668
1600982330.278448,119.000000,0.000000,3917.948730,4623.589844,4162.051270,4254.358887,3966.153809,4612.307617,3958.461426,3876.410156,4310.256348,4038.974365,4232.307617,4165.128418,4067.692383,3979.487061,125.000000,4.000000,,,,0.000000,4.000000,4.000000,4.000000,4.000000,4.000000,4.000000,4.000000,4.000000,4.000000,4.000000,2.000000,2.000000,4.000000,1.000000,41.666668
1600982330.286269,120.000000,0.000000,3913.333252,4627.179688,4161.538574,4252.820313,3968.205078,4610.256348,3962.564209,3880.000000,4315.897461,4037.435791,4229.743652,4162.051270,4061.538574,3974.358887,316.000000,4.000000,,,,0.000000,4.000000,4.000000,4.000000,4.000000,4.000000,4.000000,4.000000,4.000000,4.000000,4.000000,2.000000,2.000000,4.000000,1.000000,41.666668
1600982330.293989,121.000000,0.000000,3911.281982,4620.512695,4157.948730,4249.230957,3968.718018,4618.461426,3964.615479,3878.461426,4311.794922,4033.333252,4221.025879,4156.922852,4053.846191,3974.871826,300.000000,4.000000,,,,0.000000,4.000000,4.000000,4.000000,4.000000,4.000000,4.000000,4.000000,4.000000,4.000000,4.000000,2.000000,2.000000,4.000000,1.000000,41.666668
1600982330.301810,122.000000,0.000000,3910.256348,4610.256348,4149.743652,4245.641113,3962.564209,4613.846191,3958.461426,3869.743652,4301.025879,4032.820557,4214.358887,4150.769043,4049.230713,3976.410156,434.000000,4.000000,,,,0.000000,4.000000,4.000000,4.000000,4.000000,4.000000,4.000000,4.000000,4.000000,4.000000,4.000000,2.000000,2.000000,4.000000,1.000000,41.666668
1600982330.309531,123.000000,0.000000,3910.256348,4616.410156,4158.974121,4247.179688,3963.076904,4609.230957,3956.410156,3871.794922,4302.563965,4035.384521,4218.974121,4154.358887,4055.384521,3974.871826,125.000000,4.000000,,,,0.000000,4.000000,4.000000,4.000000,4.000000,4.000000,4.000000,4.000000,4.000000,4.000000,4.000000,2.000000,2.000000,4.000000,1.000000,41.666668
1600982330.317351,124.000000,0.000000,3914.358887,4627.179688,4192.820313,4250.769043,3974.871826,4617.436035,3961.538574,3878.461426,4309.230957,4038.461426,4225.128418,4162.563965,4062.564209,3974.358887,316.000000,4.000000,,,,0.000000,4.000000,4.000000,4.000000,4.000000,4.000000,4.000000,4.000000,4.000000,4.000000,4.000000,2.000000,2.000000,4.000000,1.000000,41.666668
1600982330.325072,125.000000,0.000000,3916.923096,4627.692383,4222.051270,4251.282227,3979.487061,4618.974121,3960.000000,3876.410156,4307.179688,4039.487061,4224.615234,4159.487305,4063.076904,3977.948730,300.000000,4.000000,,,,0.000000,4.000000,4.000000,4.000000,4.000000,4.000000,4.000000,4.000000,4.000000,4.000000,4.000000,2.000000,2.000000,4.000000,1.000000,41.666668
1600982330.332993,126.000000,0.000000,3917.948730,4625.128418,4229.743652,4249.743652,3969.743652,4606.666504,3955.897461,3876.923096,4306.153809,4042.564209,4221.538574,4156.410156,4062.051270,3981.025635,434.000000,4.000000,,,,0.000000,4.000000,4.000000,4.000000,4.000000,4.000000,4.000000,4.000000,4.000000,4.000000,4.000000,2.000000,2.000000,4.000000,1.000000,41.666668
1600982330.340814,127.000000,0.000000,3925.128174,4629.743652,4238.974121,4257.436035,3966.666748,4609.230957,3965.641113,3892.820557,4322.051270,4051.281982,4226.666504,4169.230957,4070.256348,3982.051270,125.000000,4.000000,,,,0.000000,4.000000,4.000000,4.000000,4.000000,4.000000,4.000000,4.000000,4.000000,4.000000,4.000000,2.000000,2.000000,4.000000,1.000000,41.666668
1600982330.348734,128.000000,0.000000,3925.128174,4629.230957,4246.153809,4260.000000,3972.307617,4618.461426,3968.718018,3897.948730,4330.769043,4047.692383,4229.743652,4172.820313,4071.794922,3980.512939,316.000000,4.000000,,,,0.000000,4.000000,4.000000,4.000000,4.000000,4.000000,4.000000,4.000000,4.000000,4.000000,4.000000,2.000000,2.000000,4.000000,1.000000,41.666668
1600982330.356555,0.000000,0.000000,3915.384521,4623.589844,4237.436035,4250.256348,3976.923096,4616.410156,3954.871826,3889.230713,4319.487305,4038.974365,4226.153809,4160.000000,4065.128174,3977.948730,417.000000,4.000000,,,,0.000000,4.000000,4.000000,4.000000,4.000000,4.000000,4.000000,4.000000,4.000000,4.000000,4.000000,2.000000,2.000000,4.000000,1.000000,41.666668
1600982330.364475,1.000000,0.000000,3908.205078,4616.922852,4231.282227,4241.538574,3966.666748,4606.666504,3947.692383,3879.487061,4308.717773,4038.461426,4223.077148,4157.436035,4061.538574,3978.974365,435.000000,4.000000,,,,0.000000,4.000000,4.000000,4.000000,4.000000,4.000000,4.000000,4.000000,4.000000,4.000000,4.000000,2.000000,2.000000,4.000000,1.000000,41.666668
1600982330.372296,2.000000,0.000000,3910.769287,4614.358887,4241.025879,4243.077148,3955.384521,4601.538574,3953.846191,3877.435791,4314.358887,4043.076904,4224.615234,4163.589844,4062.564209,3977.948730,451.000000,4.000000,,,,0.000000,4.000000,4.000000,4.000000,4.000000,4.000000,4.000000,4.000000,4.000000,4.000000,4.000000,2.000000,2.000000,4.000000,1.000000,41.666668
1600982330.380216,3.000000,0.000000,3914.871826,4619.487305,4253.846191,4251.282227,3963.076904,4605.128418,3956.923096,3878.974365,4316.410156,4042.564209,4224.102539,4164.102539,4064.615479,3975.384521,456.000000,4.000000,,,,0.000000,4.000000,4.000000,4.000000,4.000000,4.000000,4.000000,4.000000,4.000000,4.000000,4.000000,2.000000,2.000000,4.000000,1.000000,41.666668
1600982330.388037,4.000000,0.000000,3918.974365,4627.692383,4257.948730,4260.512695,3977.435791,4610.256348,3954.871826,3882.051270,4311.794922,4042.051270,4223.589844,4162.051270,4070.256348,3975.384521,471.000000,4.000000,,,,0.000000,4.000000,4.000000,4.000000,4.000000,4.000000,4.000000,4.000000,4.000000,4.000000,4.000000,2.000000,2.000000,4.000000,1.000000,41.666668
1600982330.395958,5.000000,0.000000,3914.358887,4618.461426,4250.769043,4256.410156,3975.384521,4609.743652,3954.358887,3882.564209,4312.307617,4037.948730,4219.487305,4156.410156,4065.128174,3973.846191,441.000000,4.000000,,,,0.000000,4.000000,4.000000,4.000000,4.000000,4.000000,4.000000,4.000000,4.000000,4.000000,4.000000,2.000000,2.000000,4.000000,1.000000,41.666668
1600982330.403778,6.000000,0.000000,3904.102539,4606.666504,4244.102539,4248.205078,3969.230713,4612.820313,3959.487061,3886.153809,4315.384766,4033.333252,4212.307617,4149.743652,4052.307617,3970.769287,441.000000,4.000000,,,,0.000000,4.000000,4.000000,4.000000,4.000000,4.000000,4.000000,4.000000,4.000000,4.000000,4.000000,2.000000,2.000000,4.000000,1.000000,41.666668
1600982330.411699,7.000000,0.000000,3905.641113,4613.333496,4248.717773,4253.846191,3977.948730,4623.077148,3966.153809,3894.871826,4315.897461,4035.897461,4215.897461,4155.384766,4053.846191,3971.281982,390.000000,4.000000,,,,0.000000,4.000000,4.000000,4.000000,4.000000,4.000000,4.000000,4.000000,4.000000,4.000000,4.000000,2.000000,2.000000,4.000000,1.000000,41.666668
1600982330.419519,8.000000,0.000000,3911.794922,4620.000000,4251.282227,4256.922852,3983.589844,4626.153809,3961.538574,3889.743652,4310.769043,4036.410156,4218.974121,4154.871582,4058.461426,3971.281982,401.000000,4.000000,,,,0.000000,4.000000,4.000000,4.000000,4.000000,4.000000,4.000000,4.000000,4.000000,4.000000,4.000000,2.000000,2.000000,4.000000,1.000000,41.666668
1600982330.427240,9.000000,0.000000,3910.256348,4610.769043,4248.205078,4249.743652,3978.461426,4618.461426,3954.871826,3878.974365,4306.153809,4035.897461,4214.358887,4145.641113,4058.974365,3970.769287,405.000000,4.000000,,,,0.000000,4.000000,4.000000,4.000000,4.000000,4.000000,4.000000,4.000000,4.000000,4.000000,4.000000,2.000000,2.000000,4.000000,1.000000,41.666668
1600982330.435061,10.000000,0.000000,3910.256348,4609.743652,4253.333496,4251.282227,3977.435791,4613.333496,3961.538574,3883.076904,4309.743652,4041.538574,4219.487305,4150.769043,4070.256348,3976.923096,440.000000,4.000000,,,,0.000000,4.000000,4.000000,4.000000,4.000000,4.000000,4.000000,4.000000,4.000000,4.000000,4.000000,2.000000,2.000000,4.000000,1.000000,41.666668
1600982330.442781,11.000000,0.000000,3916.410156,4626.666504,4262.563965,4260.512695,3980.000000,4614.358887,3966.666748,3887.179443,4315.897461,4046.153809,4228.205078,4164.102539,4076.923096,3980.512939,125.000000,4.000000,,,,0.000000,4.000000,4.000000,4.000000,4.000000,4.000000,4.000000,4.000000,4.000000,4.000000,4.000000,2.000000,2.000000,4.000000,1.000000,41.666668
1600982330.450602,12.000000,0.000000,3915.384521,4633.333496,4260.512695,4256.922852,3977.435791,4617.436035,3962.051270,3882.564209,4315.384766,4042.564209,4224.102539,4161.538574,4064.615479,3973.846191,317.000000,4.000000,,,,0.000000,4.000000,4.000000,4.000000,4.000000,4.000000,4.000000,4.000000,4.000000,4.000000,4.000000,2.000000,2.000000,4.000000,1.000000,41.666668
1600982330.458323,13.000000,0.000000,3903.076904,4622.563965,4252.820313,4248.205078,3974.358887,4615.384766,3961.025635,3881.538574,4311.282227,4036.923096,4214.871582,4150.769043,4057.948730,3969.230713,300.000000,4.000000,,,,0.000000,4.000000,4.000000,4.000000,4.000000,4.000000,4.000000,4.000000,4.000000,4.000000,4.000000,2.000000,2.000000,4.000000,1.000000,41.666668
1600982330.466143,14.000000,0.000000,3896.410156,4617.948730,4253.333496,4249.743652,3974.871826,4609.230957,3961.538574,3882.564209,4310.769043,4036.923096,4213.846191,4148.205078,4061.025635,3972.820557,440.000000,4.000000,,,,0.000000,4.000000,4.000000,4.000000,4.000000,4.000000,4.000000,4.000000,4.000000,4.000000,4.000000,2.000000,2.000000,4.000000,1.000000,41.666668
1600982330.473864,15.000000,0.000000,3907.692383,4627.692383,4267.692383,4258.974121,3980.000000,4610.769043,3961.538574,3884.102539,4316.410156,4044.615479,4221.025879,4154.358887,4066.666748,3976.410156,125.000000,4.000000,,,,0.000000,4.000000,4.000000,4.000000,4.000000,4.000000,4.000000,4.000000,4.000000,4.000000,4.000000,2.000000,2.000000,4.000000,1.000000,41.666668
1600982330.481684,16.000000,0.000000,3915.897461,4630.769043,4277.436035,4262.051270,3977.948730,4616.410156,3960.512939,3888.205078,4318.461426,4046.153809,4225.128418,4159.487305,4069.230713,3976.923096,0.000000,4.000000,,,,0.000000,4.000000,4.000000,4.000000,4.000000,4.000000,4.000000,4.000000,4.000000,4.000000,4.000000,2.000000,2.000000,4.000000,1.000000,41.666668
1600982330.489405,17.000000,0.000000,3913.333252,4627.179688,4274.358887,4259.487305,3977.435791,4617.948730,3961.025635,3891.794922,4316.922852,4043.589844,4220.512695,4155.384766,4067.692383,3976.923096,0.000000,4.000000,,,,0.000000,4.000000,4.000000,4.000000,4.000000,4.000000,4.000000,4.000000,4.000000,4.000000,4.000000,2.000000,2.000000,4.000000,1.000000,41.666668
1600982330.497226,18.000000,0.000000,3914.358887,4628.205078,4270.769043,4258.461426,3982.051270,4612.820313,3961.025635,3889.230713,4313.333496,4042.051270,4216.410156,4154.871582,4068.205078,3977.435791,0.000000,4.000000,,,,0.000000,4.000000,4.000000,4.000000,4.000000,4.000000,4.000000,4.000000,4.000000,4.000000,4.000000,2.000000,2.000000,4.000000,1.000000,41.666668
1600982330.504947,19.000000,0.000000,3918.974365,4625.641113,4271.282227,4258.974121,3976.923096,4609.743652,3959.487061,3886.153809,4310.769043,4037.948730,4222.051270,4159.487305,4072.307617,3977.948730,0.000000,4.000000,,,,0.000000,4.000000,4.000000,4.000000,4.000000,4.000000,4.000000,4.000000,4.000000,4.000000,4.000000,2.000000,2.000000,4.000000,1.000000,41.666668
1600982330.512867,20.000000,0.000000,3911.281982,4617.436035,4265.641113,4254.871582,3964.615479,4612.820313,3958.461426,3883.589844,4310.256348,4035.384521,4223.077148,4157.436035,4068.718018,3977.948730,0.000000,4.000000,,,,0.000000,4.000000,4.000000,4.000000,4.000000,4.000000,4.000000,4.000000,4.000000,4.000000,4.000000,2.000000,2.000000,4.000000,1.000000,41.666668
1600982330.520688,21.000000,0.000000,3910.769287,4622.563965,4264.615234,4257.948730,3975.384521,4620.512695,3963.589844,3886.666748,4317.948730,4047.179443,4220.000000,4157.436035,4068.718018,3976.410156,0.000000,4.000000,,,,0.000000,4.000000,4.000000,4.000000,4.000000,4.000000,4.000000,4.000000,4.000000,4.000000,4.000000,2.000000,2.000000,4.000000,1.000000,41.666668
1600982330.528609,22.000000,0.000000,3919.487061,4632.307617,4268.717773,4264.102539,3994.358887,4623.077148,3968.718018,3891.281982,4324.102539,4054.358887,4224.102539,4162.051270,4074.358887,3980.512939,0.000000,4.000000,,,,0.000000,4.000000,4.000000,4.000000,4.000000,4.000000,4.000000,4.000000,4.000000,4.000000,4.000000,2.000000,2.000000,4.000000,1.000000,41.666668
1600982330.536429,23.000000,0.000000,3917.948730,4626.666504,4266.153809,4260.000000,3990.769287,4623.077148,3965.641113,3890.256348,4321.538574,4043.076904,4225.128418,4157.436035,4072.307617,3982.051270,0.000000,4.000000,,,,0.000000,4.000000,4.000000,4.000000,4.000000,4.000000,4.000000,4.000000,4.000000,4.000000,4.000000,2.000000,2.000000,4.000000,1.000000,41.666668
1600982330.544350,24.000000,0.000000,3908.718018,4616.922852,4264.102539,4252.307617,3981.538574,4621.025879,3963.076904,3886.153809,4315.897461,4038.461426,4217.436035,4152.307617,4065.128174,3979.487061,0.000000,4.000000,,,,0.000000,4.000000,4.000000,4.000000,4.000000,4.000000,4.000000,4.000000,4.000000,4.000000,4.000000,2.000000,2.000000,4.000000,1.000000,41.666668
1600982330.552170,25.000000,0.000000,3906.153809,4618.461426,4266.666504,4250.769043,3982.051270,4612.307617,3963.076904,3887.692383,4313.333496,4043.589844,4217.436035,4158.461426,4063.589844,3978.461426,0.000000,4.000000,,,,0.000000,4.000000,4.000000,4.000000,4.000000,4.000000,4.000000,4.000000,4.000000,4.000000,4.000000,2.000000,2.000000,4.000000,1.000000,41.666668
1600982330.560091,26.000000,0.000000,3904.615479,4621.025879,4264.102539,4250.256348,3978.974365,4607.179688,3964.102539,3890.769287,4314.871582,4041.025635,4221.538574,4158.461426,4061.538574,3977.948730,0.000000,4.000000,,,,0.000000,4.000000,4.000000,4.000000,4.000000,4.000000,4.000000,4.000000,4.000000,4.000000,4.000000,2.000000,2.000000,4.000000,1.000000,41.666668
1600982330.567911,27.000000,0.000000,3900.512939,4620.000000,4262.051270,4250.769043,3976.923096,4616.922852,3965.128174,3887.692383,4313.846191,4035.897461,4216.410156,4149.230957,4059.487061,3975.897461,0.000000,4.000000,,,,0.000000,4.000000,4.000000,4.000000,4.000000,4.000000,4.000000,4.000000,4.000000,4.000000,4.000000,2.000000,2.000000,4.000000,1.000000,41.666668
1600982330.575832,28.000000,0.000000,3902.051270,4621.025879,4266.666504,4251.794922,3982.051270,4623.077148,3962.564209,3885.641113,4312.307617,4036.410156,4212.307617,4149.743652,4061.025635,3974.358887,0.000000,4.000000,,,,0.000000,4.000000,4.000000,4.000000,4.000000,4.000000,4.000000,4.000000,4.000000,4.000000,4.000000,2.000000,2.000000,4.000000,1.000000,41.666668
1600982330.583653,29.000000,0.000000,3900.512939,4618.461426,4268.205078,4249.230957,3982.051270,4613.846191,3958.461426,3887.179443,4315.897461,4038.461426,4212.307617,4158.974121,4061.538574,3976.410156,0.000000,4.000000,,,,0.000000,4.000000,4.000000,4.000000,4.000000,4.000000,4.000000,4.000000,4.000000,4.000000,4.000000,2.000000,2.000000,4.000000,1.000000,41.666668
1600982330.591573,30.000000,0.000000,3902.564209,4617.436035,4269.743652,4251.282227,3985.641113,4615.384766,3964.615479,3891.281982,4326.666504,4045.128174,4217.948730,4165.641113,4069.230713,3980.512939,0.000000,4.000000,,,,0.000000,4.000000,4.000000,4.000000,4.000000,4.000000,4.000000,4.000000,4.000000,4.000000,4.000000,2.000000,2.000000,4.000000,1.000000,41.666668
1600982330.599394,31.000000,0.000000,3909.230713,4624.102539,4275.897461,4256.410156,3992.820557,4626.666504,3971.281982,3896.410156,4328.717773,4051.794922,4224.102539,4164.615234,4075.384521,3982.051270,0.000000,4.000000,,,,0.000000,4.000000,4.000000,4.000000,4.000000,4.000000,4.000000,4.000000,4.000000,4.000000,4.000000,2.000000,2.000000,4.000000,1.000000,41.666668
1600982330.607114,32.000000,0.000000,3907.179443,4630.769043,4278.974121,4257.948730,3987.692383,4624.615234,3966.153809,3895.384521,4318.974121,4046.153809,4220.000000,4157.948730,4067.179443,3977.435791,0.000000,4.000000,,,,0.000000,4.000000,4.000000,4.000000,4.000000,4.000000,4.000000,4.000000,4.000000,4.000000,4.000000,2.000000,2.000000,4.000000,1.000000,41.666668
1600982330.614935,33.000000,0.000000,3900.512939,4630.769043,4274.871582,4260.000000,3985.128174,4615.897461,3963.076904,3888.718018,4314.871582,4034.358887,4216.410156,4156.410156,4061.025635,3975.897461,0.000000,4.000000,,,,0.000000,4.000000,4.000000,4.000000,4.000000,4.000000,4.000000,4.000000,4.000000,4.000000,4.000000,2.000000,2.000000,4.000000,1.000000,41.666668
1600982330.622656,34.000000,0.000000,3909.230713,4635.384766,4281.538574,4267.179688,4001.538574,4621.025879,3971.794922,3892.307617,4328.717773,4038.974365,4229.230957,4165.641113,4074.871826,3980.000000,0.000000,4.000000,,,,0.000000,4.000000,4.000000,4.000000,4.000000,4.000000,4.000000,4.000000,4.000000,4.000000,4.000000,2.000000,2.000000,4.000000,1.000000,41.666668
1600982330.630476,35.000000,0.000000,3913.846191,4634.358887,4289.230957,4265.641113,4003.076904,4627.179688,3975.384521,3902.051270,4337.436035,4048.205078,4236.410156,4170.769043,4081.538574,3981.538574,0.000000,4.000000,,,,0.000000,4.000000,4.000000,4.000000,4.000000,4.000000,4.000000,4.000000,4.000000,4.000000,4.000000,2.000000,2.000000,4.000000,1.000000,41.666668
1600982330.638197,36.000000,0.000000,3900.000000,4624.615234,4286.666504,4257.948730,3991.281982,4625.128418,3972.307617,3901.025635,4330.769043,4043.076904,4226.153809,4165.128418,4073.846191,3979.487061,0.000000,4.000000,,,,0.000000,4.000000,4.000000,4.000000,4.000000,4.000000,4.000000,4.000000,4.000000,4.000000,4.000000,2.000000,2.000000,4.000000,1.000000,41.666668
1600982330.646018,37.000000,0.000000,3891.281982,4620.000000,4283.589844,4257.436035,3993.333252,4623.077148,3969.230713,3891.794922,4322.563965,4034.871826,4219.487305,4162.051270,4068.718018,3978.461426,0.000000,4.000000,,,,0.000000,4.000000,4.000000,4.000000,4.000000,4.000000,4.000000,4.000000,4.000000,4.000000,4.000000,2.000000,2.000000,4.000000,1.000000,41.666668
1600982330.653738,38.000000,0.000000,3892.307617,4621.538574,4285.128418,4257.948730,3997.435791,4622.563965,3966.153809,3888.718018,4320.512695,4037.948730,4221.025879,4163.589844,4067.692383,3978.974365,0.000000,4.000000,,,,0.000000,4.000000,4.000000,4.000000,4.000000,4.000000,4.000000,4.000000,4.000000,4.000000,4.000000,2.000000,2.000000,4.000000,1.000000,41.666668
1600982330.661559,39.000000,0.000000,3878.461426,4612.307617,4277.948730,4242.563965,3978.461426,4609.230957,3956.923096,3882.051270,4314.358887,4030.256348,4217.948730,4156.922852,4055.897461,3978.974365,0.000000,4.000000,,,,0.000000,4.000000,4.000000,4.000000,4.000000,4.000000,4.000000,4.000000,4.000000,4.000000,4.000000,2.000000,2.000000,4.000000,1.000000,41.666668
1600982330.669280,40.000000,0.000000,3862.051270,4602.563965,4264.102539,4229.743652,3966.153809,4601.538574,3954.871826,3878.974365,4309.230957,4016.410156,4208.205078,4150.256348,4042.564209,3973.333252,0.000000,4.000000,,,,0.000000,4.000000,4.000000,4.000000,4.000000,4.000000,4.000000,4.000000,4.000000,4.000000,4.000000,2.000000,2.000000,4.000000,1.000000,41.666668
1600982330.677100,41.000000,0.000000,3864.615479,4609.230957,4261.538574,4238.974121,3978.461426,4607.692383,3957.435791,3880.512939,4309.230957,4018.461426,4203.589844,4154.871582,4043.589844,3971.281982,0.000000,4.000000,,,,0.000000,4.000000,4.000000,4.000000,4.000000,4.000000,4.000000,4.000000,4.000000,4.000000,4.000000,2.000000,2.000000,4.000000,1.000000,41.666668
1600982330.684821,42.000000,0.000000,3875.384521,4618.974121,4271.794922,4249.743652,3989.230713,4611.282227,3956.923096,3882.564209,4313.333496,4027.179443,4210.769043,4159.487305,4051.794922,3974.871826,0.000000,4.000000,,,,0.000000,4.000000,4.000000,4.000000,4.000000,4.000000,4.000000,4.000000,4.000000,4.000000,4.000000,2.000000,2.000000,4.000000,1.000000,41.666668
1600982330.692642,43.000000,0.000000,3881.538574,4625.128418,4278.974121,4253.333496,3992.820557,4610.256348,3962.051270,3892.307617,4325.128418,4034.871826,4221.538574,4160.512695,4060.000000,3978.461426,0.000000,4.000000,,,,0.000000,4.000000,4.000000,4.000000,4.000000,4.000000,4.000000,4.000000,4.000000,4.000000,4.000000,2.000000,2.000000,4.000000,1.000000,41.666668
1600982330.700362,44.000000,0.000000,3881.025635,4628.205078,4271.794922,4251.794922,3990.256348,4616.922852,3966.153809,3900.512939,4331.794922,4039.487061,4223.077148,4162.563965,4065.641113,3978.974365,0.000000,4.000000,,,,0.000000,4.000000,4.000000,4.000000,4.000000,4.000000,4.000000,4.000000,4.000000,4.000000,4.000000,2.000000,2.000000,4.000000,1.000000,41.666668
1600982330.708283,45.000000,0.000000,3874.871826,4623.077148,4261.025879,4245.128418,3982.564209,4623.077148,3960.000000,3892.820557,4324.102539,4033.846191,4214.871582,4160.000000,4062.564209,3977.435791,0.000000,4.000000,,,,0.000000,4.000000,4.000000,4.000000,4.000000,4.000000,4.000000,4.000000,4.000000,4.000000,4.000000,2.000000,2.000000,4.000000,1.000000,41.666668
1600982330.716103,46.000000,0.000000,3877.948730,4621.025879,4264.615234,4245.128418,3983.589844,4614.358887,3955.384521,3882.564209,4316.922852,4033.846191,4213.846191,4158.461426,4059.487061,3976.923096,0.000000,4.000000,,,,0.000000,4.000000,4.000000,4.000000,4.000000,4.000000,4.000000,4.000000,4.000000,4.000000,4.000000,2.000000,2.000000,4.000000,1.000000,41.666668
1600982330.724024,47.000000,0.000000,3892.307617,4631.794922,4275.384766,4255.897461,3996.410156,4611.282227,3963.589844,3890.256348,4320.000000,4046.153809,4222.051270,4166.153809,4069.230713,3980.512939,0.000000,4.000000,,,,0.000000,4.000000,4.000000,4.000000,4.000000,4.000000,4.000000,4.000000,4.000000,4.000000,4.000000,2.000000,2.000000,4.000000,1.000000,41.666668
1600982330.731844,48.000000,0.000000,3890.256348,4630.769043,4269.743652,4253.333496,3994.871826,4616.410156,3964.615479,3893.846191,4322.563965,4038.974365,4221.538574,4167.692383,4069.230713,3981.025635,0.000000,4.000000,,,,0.000000,4.000000,4.000000,4.000000,4.000000,4.000000,4.000000,4.000000,4.000000,4.000000,4.000000,2.000000,2.000000,4.000000,1.000000,41.666668
1600982330.739765,49.000000,0.000000,3883.076904,4627.692383,4262.051270,4247.179688,3992.820557,4621.538574,3964.102539,3893.333252,4329.230957,4026.666748,4216.922852,4161.538574,4063.076904,3976.923096,0.000000,4.000000,,,,0.000000,4.000000,4.000000,4.000000,4.000000,4.000000,4.000000,4.000000,4.000000,4.000000,4.000000,2.000000,2.000000,4.000000,1.000000,41.666668
1600982330.747586,50.000000,0.000000,3886.666748,4633.333496,4263.077148,4250.769043,4000.000000,4618.974121,3965.641113,3896.410156,4332.307617,4029.743652,4218.974121,4161.538574,4065.641113,3978.461426,0.000000,4.000000,,,,0.000000,4.000000,4.000000,4.000000,4.000000,4.000000,4.000000,4.000000,4.000000,4.000000,4.000000,2.000000,2.000000,4.000000,1.000000,41.666668
1600982330.755506,51.000000,0.000000,3891.281982,4633.846191,4264.615234,4253.333496,3993.846191,4615.384766,3959.487061,3893.846191,4324.615234,4035.897461,4221.538574,4163.077148,4069.230713,3980.000000,0.000000,4.000000,,,,0.000000,4.000000,4.000000,4.000000,4.000000,4.000000,4.000000,4.000000,4.000000,4.000000,4.000000,2.000000,2.000000,4.000000,1.000000,41.666668
1600982330.763327,52.000000,0.000000,3890.256348,4631.282227,4268.205078,4252.820313,3985.641113,4619.487305,3961.538574,3892.307617,4322.563965,4033.333252,4221.025879,4167.179688,4067.179443,3980.000000,0.000000,4.000000,,,,0.000000,4.000000,4.000000,4.000000,4.000000,4.000000,4.000000,4.000000,4.000000,4.000000,4.000000,2.000000,2.000000,4.000000,1.000000,41.666668
1600982330.771247,53.000000,0.000000,3889.230713,4633.846191,4272.307617,4252.820313,3991.794922,4619.487305,3972.820557,3900.512939,4331.794922,4030.256348,4222.051270,4173.846191,4065.641113,3978.974365,0.000000,4.000000,,,,0.000000,4.000000,4.000000,4.000000,4.000000,4.000000,4.000000,4.000000,4.000000,4.000000,4.000000,2.000000,2.000000,4.000000,1.000000,41.666668
