title:your record name, start timestamp:1600982353.567775, stop timestamp:1600982368.684303, headset type:EPOC, headset serial:82344558, headset firmware:1e00, subject name:alzaabi.su, channels:38, sampling rate:128, samples:1934      , version:2.0
Timestamp,EEG.Counter,EEG.Interpolated,EEG.AF3,EEG.F7,EEG.F3,EEG.FC5,EEG.T7,EEG.P7,EEG.O1,EEG.O2,EEG.P8,EEG.T8,EEG.FC6,EEG.F4,EEG.F8,EEG.AF4,EEG.RawCq,EEG.Battery,MarkerIndex,MarkerType,MarkerValueInt,EEG.MarkerHardware,CQ.AF3,CQ.F7,CQ.F3,CQ.FC5,CQ.T7,CQ.P7,CQ.O1,CQ.O2,CQ.P8,CQ.T8,CQ.FC6,CQ.F4,CQ.F8,CQ.AF4,CQ.Overall
1600982353.567775,1.000000,0.000000,3907.692383,4632.307617,4197.948730,4260.512695,4028.205078,4635.384766,3977.435791,3906.666748,4316.410156,4066.666748,4212.307617,4182.051270,4086.153809,4019.487061,437.000000,4.000000,,,,0.000000,4.000000,4.000000,4.000000,4.000000,4.000000,4.000000,4.000000,4.000000,4.000000,4.000000,2.000000,2.000000,4.000000,1.000000,41.666668
1600982353.575504,2.000000,0.000000,3911.794922,4630.769043,4200.512695,4264.102539,4038.974365,4636.922852,3979.487061,3909.743652,4326.666504,4058.461426,4213.846191,4181.538574,4087.179443,4022.564209,449.000000,4.000000,,,,0.000000,4.000000,4.000000,4.000000,4.000000,4.000000,4.000000,4.000000,4.000000,4.000000,4.000000,2.000000,2.000000,4.000000,1.000000,41.666668
1600982353.583334,3.000000,0.000000,3921.538574,4646.153809,4205.128418,4274.871582,4044.615479,4644.615234,3981.538574,3910.256348,4330.769043,4073.846191,4218.974121,4186.666504,4098.974121,4025.128174,457.000000,4.000000,,,,0.000000,4.000000,4.000000,4.000000,4.000000,4.000000,4.000000,4.000000,4.000000,4.000000,4.000000,2.000000,2.000000,4.000000,1.000000,41.666668
1600982353.591062,4.000000,0.000000,3911.794922,4641.538574,4197.436035,4265.128418,4036.410156,4644.102539,3976.410156,3903.589844,4303.077148,4080.000000,4214.871582,4187.692383,4093.846191,4022.564209,469.000000,4.000000,,,,0.000000,4.000000,4.000000,4.000000,4.000000,4.000000,4.000000,4.000000,4.000000,4.000000,4.000000,2.000000,2.000000,4.000000,1.000000,41.666668
1600982353.598998,5.000000,0.000000,3898.461426,4623.077148,4187.179688,4253.846191,4032.820557,4637.948730,3974.871826,3898.461426,4297.436035,4050.769287,4206.153809,4184.615234,4078.974365,4019.487061,440.000000,4.000000,,,,0.000000,4.000000,4.000000,4.000000,4.000000,4.000000,4.000000,4.000000,4.000000,4.000000,4.000000,2.000000,2.000000,4.000000,1.000000,41.666668
1600982353.606834,6.000000,0.000000,3900.512939,4625.128418,4193.846191,4262.563965,4041.538574,4635.384766,3979.487061,3903.589844,4323.589844,4034.358887,4208.717773,4186.153809,4078.974365,4019.487061,437.000000,4.000000,,,,0.000000,4.000000,4.000000,4.000000,4.000000,4.000000,4.000000,4.000000,4.000000,4.000000,4.000000,2.000000,2.000000,4.000000,1.000000,41.666668
1600982353.614770,7.000000,0.000000,3908.205078,4640.512695,4204.102539,4270.256348,4041.025635,4636.410156,3986.666748,3917.435791,4336.410156,4062.051270,4222.051270,4195.897461,4097.948730,4025.128174,393.000000,4.000000,,,,0.000000,4.000000,4.000000,4.000000,4.000000,4.000000,4.000000,4.000000,4.000000,4.000000,4.000000,2.000000,2.000000,4.000000,1.000000,41.666668
1600982353.622607,8.000000,0.000000,3904.102539,4643.077148,4197.948730,4264.615234,4030.256348,4639.487305,3989.743652,3922.051270,4332.307617,4077.948730,4225.641113,4201.025879,4105.641113,4027.692383,401.000000,4.000000,,,,0.000000,4.000000,4.000000,4.000000,4.000000,4.000000,4.000000,4.000000,4.000000,4.000000,4.000000,2.000000,2.000000,4.000000,1.000000,41.666668
1600982353.630542,9.000000,0.000000,3884.615479,4629.743652,4181.538574,4253.846191,4024.615479,4634.871582,3981.025635,3905.641113,4323.589844,4052.307617,4212.820313,4189.743652,4088.718018,4021.025635,406.000000,4.000000,,,,0.000000,4.000000,4.000000,4.000000,4.000000,4.000000,4.000000,4.000000,4.000000,4.000000,4.000000,2.000000,2.000000,4.000000,1.000000,41.666668
1600982353.638378,10.000000,0.000000,3873.846191,4625.641113,4178.461426,4254.358887,4029.230713,4628.717773,3981.025635,3907.692383,4325.641113,4051.281982,4210.256348,4185.128418,4084.615479,4017.948730,437.000000,4.000000,,,,0.000000,4.000000,4.000000,4.000000,4.000000,4.000000,4.000000,4.000000,4.000000,4.000000,4.000000,2.000000,2.000000,4.000000,1.000000,41.666668
1600982353.646312,11.000000,0.000000,3878.974365,4628.717773,4184.102539,4258.974121,4029.230713,4632.820313,3990.769287,3926.666748,4333.333496,4072.820557,4216.922852,4194.358887,4094.871826,4023.076904,124.000000,4.000000,,,,0.000000,4.000000,4.000000,4.000000,4.000000,4.000000,4.000000,4.000000,4.000000,4.000000,4.000000,2.000000,2.000000,4.000000,1.000000,41.666668
1600982353.654146,12.000000,0.000000,3883.589844,4628.205078,4182.051270,4260.000000,4031.794922,4637.948730,3994.358887,3926.153809,4334.871582,4068.718018,4217.436035,4194.358887,4094.871826,4021.025635,315.000000,4.000000,,,,0.000000,4.000000,4.000000,4.000000,4.000000,4.000000,4.000000,4.000000,4.000000,4.000000,4.000000,2.000000,2.000000,4.000000,1.000000,41.666668
1600982353.661880,13.000000,0.000000,3878.461426,4628.205078,4171.794922,4257.436035,4037.435791,4636.410156,3988.205078,3916.923096,4330.769043,4058.461426,4214.358887,4184.615234,4089.230713,4018.461426,300.000000,4.000000,,,,0.000000,4.000000,4.000000,4.000000,4.000000,4.000000,4.000000,4.000000,4.000000,4.000000,4.000000,2.000000,2.000000,4.000000,1.000000,41.666668
1600982353.669713,14.000000,0.000000,3869.743652,4625.128418,4164.615234,4253.846191,4033.846191,4634.358887,3977.948730,3912.820557,4328.205078,4055.897461,4209.230957,4175.384766,4085.641113,4018.461426,437.000000,4.000000,,,,0.000000,4.000000,4.000000,4.000000,4.000000,4.000000,4.000000,4.000000,4.000000,4.000000,4.000000,2.000000,2.000000,4.000000,1.000000,41.666668
1600982353.677445,15.000000,0.000000,3862.051270,4616.410156,4160.000000,4247.692383,4025.128174,4624.102539,3965.128174,3895.384521,4311.282227,4045.128174,4200.000000,4171.282227,4073.846191,4015.897461,124.000000,4.000000,,,,0.000000,4.000000,4.000000,4.000000,4.000000,4.000000,4.000000,4.000000,4.000000,4.000000,4.000000,2.000000,2.000000,4.000000,1.000000,41.666668
1600982353.685278,16.000000,0.000000,3870.769287,4623.077148,4164.615234,4250.256348,4026.153809,4617.436035,3968.205078,3887.179443,4305.128418,4041.025635,4203.589844,4176.410156,4074.358887,4016.923096,0.000000,4.000000,,,,0.000000,4.000000,4.000000,4.000000,4.000000,4.000000,4.000000,4.000000,4.000000,4.000000,4.000000,2.000000,2.000000,4.000000,1.000000,41.666668
1600982353.693010,17.000000,0.000000,3891.281982,4644.615234,4177.948730,4262.563965,4037.948730,4630.769043,3984.615479,3906.666748,4331.794922,4055.897461,4218.461426,4184.615234,4095.384521,4025.641113,0.000000,4.000000,,,,0.000000,4.000000,4.000000,4.000000,4.000000,4.000000,4.000000,4.000000,4.000000,4.000000,4.000000,2.000000,2.000000,4.000000,1.000000,41.666668
1600982353.700841,18.000000,0.000000,3892.820557,4644.615234,4180.000000,4263.077148,4036.410156,4638.461426,3989.230713,3917.435791,4336.410156,4068.205078,4215.384766,4181.538574,4096.410156,4024.615479,0.000000,4.000000,,,,0.000000,4.000000,4.000000,4.000000,4.000000,4.000000,4.000000,4.000000,4.000000,4.000000,4.000000,2.000000,2.000000,4.000000,1.000000,41.666668
1600982353.708573,19.000000,0.000000,3882.051270,4628.205078,4169.743652,4253.333496,4023.589844,4623.589844,3982.051270,3912.820557,4312.820313,4064.615479,4203.589844,4175.897461,4081.538574,4017.435791,0.000000,4.000000,,,,0.000000,4.000000,4.000000,4.000000,4.000000,4.000000,4.000000,4.000000,4.000000,4.000000,4.000000,2.000000,2.000000,4.000000,1.000000,41.666668
1600982353.716404,20.000000,0.000000,3889.230713,4635.384766,4171.282227,4257.948730,4031.794922,4623.077148,3983.076904,3917.435791,4324.615234,4055.384521,4210.256348,4184.102539,4089.743652,4019.487061,0.000000,4.000000,,,,0.000000,4.000000,4.000000,4.000000,4.000000,4.000000,4.000000,4.000000,4.000000,4.000000,4.000000,2.000000,2.000000,4.000000,1.000000,41.666668
1600982353.724134,21.000000,0.000000,3900.000000,4646.666504,4176.410156,4264.615234,4044.615479,4641.025879,3988.205078,3921.538574,4349.743652,4052.820557,4221.025879,4190.769043,4102.563965,4022.051270,0.000000,4.000000,,,,0.000000,4.000000,4.000000,4.000000,4.000000,4.000000,4.000000,4.000000,4.000000,4.000000,4.000000,2.000000,2.000000,4.000000,1.000000,41.666668
1600982353.731965,22.000000,0.000000,3885.641113,4627.179688,4162.563965,4251.282227,4034.358887,4636.410156,3979.487061,3908.205078,4327.179688,4052.307617,4211.794922,4182.563965,4088.205078,4012.820557,0.000000,4.000000,,,,0.000000,4.000000,4.000000,4.000000,4.000000,4.000000,4.000000,4.000000,4.000000,4.000000,4.000000,2.000000,2.000000,4.000000,1.000000,41.666668
1600982353.739695,23.000000,0.000000,3875.384521,4616.410156,4152.820313,4243.589844,4023.589844,4620.000000,3970.769287,3899.487061,4308.717773,4048.718018,4203.077148,4176.922852,4076.410156,4010.256348,0.000000,4.000000,,,,0.000000,4.000000,4.000000,4.000000,4.000000,4.000000,4.000000,4.000000,4.000000,4.000000,4.000000,2.000000,2.000000,4.000000,1.000000,41.666668
1600982353.747524,24.000000,0.000000,3888.718018,4634.358887,4163.589844,4257.436035,4031.281982,4623.077148,3974.871826,3906.153809,4330.769043,4050.769287,4211.282227,4181.025879,4086.666748,4017.435791,0.000000,4.000000,,,,0.000000,4.000000,4.000000,4.000000,4.000000,4.000000,4.000000,4.000000,4.000000,4.000000,4.000000,2.000000,2.000000,4.000000,1.000000,41.666668
1600982353.755253,25.000000,0.000000,3899.487061,4648.205078,4173.333496,4270.769043,4047.692383,4633.333496,3980.512939,3912.820557,4341.025879,4063.076904,4221.025879,4185.128418,4097.948730,4019.487061,0.000000,4.000000,,,,0.000000,4.000000,4.000000,4.000000,4.000000,4.000000,4.000000,4.000000,4.000000,4.000000,4.000000,2.000000,2.000000,4.000000,1.000000,41.666668
1600982353.763190,26.000000,0.000000,3892.820557,4640.512695,4168.205078,4267.692383,4050.256348,4632.820313,3985.641113,3912.307617,4329.743652,4060.512939,4220.000000,4182.051270,4094.871826,4016.923096,0.000000,4.000000,,,,0.000000,4.000000,4.000000,4.000000,4.000000,4.000000,4.000000,4.000000,4.000000,4.000000,4.000000,2.000000,2.000000,4.000000,1.000000,41.666668
1600982353.771026,27.000000,0.000000,3885.128174,4624.615234,4161.538574,4256.922852,4037.948730,4636.922852,3991.794922,3911.794922,4330.256348,4044.615479,4211.282227,4174.871582,4084.102539,4012.307617,0.000000,4.000000,,,,0.000000,4.000000,4.000000,4.000000,4.000000,4.000000,4.000000,4.000000,4.000000,4.000000,4.000000,2.000000,2.000000,4.000000,1.000000,41.666668
1600982353.778962,28.000000,0.000000,3878.974365,4618.461426,4154.871582,4249.743652,4032.820557,4643.589844,3985.128174,3905.641113,4328.205078,4037.948730,4202.563965,4169.743652,4072.820557,4009.230713,0.000000,4.000000,,,,0.000000,4.000000,4.000000,4.000000,4.000000,4.000000,4.000000,4.000000,4.000000,4.000000,4.000000,2.000000,2.000000,4.000000,1.000000,41.666668
1600982353.786798,29.000000,0.000000,3882.564209,4635.384766,4157.436035,4259.487305,4047.692383,4644.615234,3978.974365,3904.102539,4326.666504,4049.743652,4208.205078,4175.897461,4080.512939,4011.794922,0.000000,4.000000,,,,0.000000,4.000000,4.000000,4.000000,4.000000,4.000000,4.000000,4.000000,4.000000,4.000000,4.000000,2.000000,2.000000,4.000000,1.000000,41.666668
1600982353.794733,30.000000,0.000000,3896.923096,4648.717773,4169.230957,4271.282227,4048.205078,4641.025879,3985.128174,3911.794922,4337.948730,4061.538574,4219.487305,4182.563965,4093.333252,4017.948730,0.000000,4.000000,,,,0.000000,4.000000,4.000000,4.000000,4.000000,4.000000,4.000000,4.000000,4.000000,4.000000,4.000000,2.000000,2.000000,4.000000,1.000000,41.666668
1600982353.802568,31.000000,0.000000,3901.538574,4642.051270,4170.256348,4269.743652,4033.846191,4635.897461,3985.128174,3913.333252,4340.512695,4062.051270,4220.000000,4181.025879,4091.794922,4018.461426,0.000000,4.000000,,,,0.000000,4.000000,4.000000,4.000000,4.000000,4.000000,4.000000,4.000000,4.000000,4.000000,4.000000,2.000000,2.000000,4.000000,1.000000,41.666668
1600982353.810503,32.000000,0.000000,3895.897461,4634.871582,4161.538574,4259.487305,4030.256348,4630.256348,3974.358887,3907.179443,4326.153809,4061.025635,4216.410156,4178.974121,4086.666748,4016.410156,0.000000,4.000000,,,,0.000000,4.000000,4.000000,4.000000,4.000000,4.000000,4.000000,4.000000,4.000000,4.000000,4.000000,2.000000,2.000000,4.000000,1.000000,41.666668
1600982353.818338,33.000000,0.000000,3898.461426,4641.025879,4163.077148,4259.487305,4032.820557,4631.794922,3978.461426,3912.820557,4327.179688,4060.000000,4221.025879,4179.487305,4093.846191,4016.923096,0.000000,4.000000,,,,0.000000,4.000000,4.000000,4.000000,4.000000,4.000000,4.000000,4.000000,4.000000,4.000000,4.000000,2.000000,2.000000,4.000000,1.000000,41.666668
1600982353.826272,34.000000,0.000000,3905.641113,4643.589844,4164.102539,4263.589844,4033.846191,4636.922852,3990.769287,3921.538574,4341.538574,4058.461426,4220.512695,4182.051270,4098.974121,4020.512939,0.000000,4.000000,,,,0.000000,4.000000,4.000000,4.000000,4.000000,4.000000,4.000000,4.000000,4.000000,4.000000,4.000000,2.000000,2.000000,4.000000,1.000000,41.666668
1600982353.834106,35.000000,0.000000,3903.076904,4635.897461,4154.871582,4261.025879,4036.410156,4642.051270,3986.153809,3913.333252,4324.615234,4064.615479,4212.820313,4183.077148,4089.230713,4020.000000,0.000000,4.000000,,,,0.000000,4.000000,4.000000,4.000000,4.000000,4.000000,4.000000,4.000000,4.000000,4.000000,4.000000,2.000000,2.000000,4.000000,1.000000,41.666668
1600982353.841839,36.000000,0.000000,3901.538574,4634.871582,4153.846191,4257.948730,4039.487061,4643.589844,3979.487061,3907.692383,4305.128418,4061.538574,4208.205078,4183.077148,4079.487061,4017.948730,0.000000,4.000000,,,,0.000000,4.000000,4.000000,4.000000,4.000000,4.000000,4.000000,4.000000,4.000000,4.000000,4.000000,2.000000,2.000000,4.000000,1.000000,41.666668
1600982353.849672,37.000000,0.000000,3905.641113,4642.051270,4158.461426,4257.948730,4035.897461,4631.794922,3981.538574,3910.769287,4322.563965,4040.512939,4204.615234,4178.461426,4081.025635,4016.410156,0.000000,4.000000,,,,0.000000,4.000000,4.000000,4.000000,4.000000,4.000000,4.000000,4.000000,4.000000,4.000000,4.000000,2.000000,2.000000,4.000000,1.000000,41.666668
1600982353.857405,38.000000,0.000000,3909.743652,4647.179688,4156.410156,4263.077148,4034.358887,4630.769043,3983.589844,3908.205078,4343.077148,4038.461426,4208.205078,4176.410156,4093.846191,4017.435791,0.000000,4.000000,,,,0.000000,4.000000,4.000000,4.000000,4.000000,4.000000,4.000000,4.000000,4.000000,4.000000,4.000000,2.000000,2.000000,4.000000,1.000000,41.666668
1600982353.865238,39.000000,0.000000,3909.230713,4645.641113,4153.846191,4267.692383,4041.025635,4641.538574,3979.487061,3901.025635,4332.307617,4055.897461,4212.820313,4180.512695,4098.461426,4020.512939,0.000000,4.000000,,,,0.000000,4.000000,4.000000,4.000000,4.000000,4.000000,4.000000,4.000000,4.000000,4.000000,4.000000,2.000000,2.000000,4.000000,1.000000,41.666668
1600982353.872970,40.000000,0.000000,3906.666748,4646.153809,4153.333496,4270.256348,4046.153809,4641.025879,3975.897461,3902.051270,4319.487305,4062.564209,4212.307617,4180.512695,4092.820557,4019.487061,0.000000,4.000000,,,,0.000000,4.000000,4.000000,4.000000,4.000000,4.000000,4.000000,4.000000,4.000000,4.000000,4.000000,2.000000,2.000000,4.000000,1.000000,41.666668
1600982353.880801,41.000000,0.000000,3898.461426,4641.538574,4145.641113,4262.051270,4034.358887,4628.717773,3973.333252,3902.564209,4314.871582,4050.769287,4208.717773,4173.333496,4085.128174,4016.410156,0.000000,4.000000,,,,0.000000,4.000000,4.000000,4.000000,4.000000,4.000000,4.000000,4.000000,4.000000,4.000000,4.000000,2.000000,2.000000,4.000000,1.000000,41.666668
1600982353.888533,42.000000,0.000000,3894.358887,4637.948730,4140.000000,4255.897461,4026.666748,4625.641113,3974.871826,3903.076904,4317.436035,4040.512939,4206.666504,4171.282227,4082.564209,4015.897461,0.000000,4.000000,,,,0.000000,4.000000,4.000000,4.000000,4.000000,4.000000,4.000000,4.000000,4.000000,4.000000,4.000000,2.000000,2.000000,4.000000,1.000000,41.666668
1600982353.896365,43.000000,0.000000,3905.128174,4645.641113,4146.666504,4262.563965,4037.948730,4632.307617,3980.512939,3907.179443,4329.743652,4048.205078,4210.256348,4176.922852,4089.230713,4020.512939,0.000000,4.000000,,,,0.000000,4.000000,4.000000,4.000000,4.000000,4.000000,4.000000,4.000000,4.000000,4.000000,4.000000,2.000000,2.000000,4.000000,1.000000,41.666668
1600982353.904096,44.000000,0.000000,3909.230713,4653.333496,4152.820313,4267.179688,4045.128174,4640.000000,3983.589844,3907.179443,4329.743652,4058.974365,4215.897461,4178.461426,4096.922852,4023.076904,0.000000,4.000000,,,,0.000000,4.000000,4.000000,4.000000,4.000000,4.000000,4.000000,4.000000,4.000000,4.000000,4.000000,2.000000,2.000000,4.000000,1.000000,41.666668
1600982353.911926,45.000000,0.000000,3894.358887,4643.077148,4143.077148,4257.948730,4037.948730,4638.461426,3978.461426,3896.923096,4316.922852,4047.179443,4209.743652,4173.846191,4086.666748,4018.974365,0.000000,4.000000,,,,0.000000,4.000000,4.000000,4.000000,4.000000,4.000000,4.000000,4.000000,4.000000,4.000000,4.000000,2.000000,2.000000,4.000000,1.000000,41.666668
1600982353.919656,46.000000,0.000000,3889.230713,4630.256348,4137.948730,4254.871582,4035.897461,4630.256348,3973.846191,3897.948730,4315.897461,4045.128174,4203.589844,4174.871582,4075.897461,4015.384521,0.000000,4.000000,,,,0.000000,4.000000,4.000000,4.000000,4.000000,4.000000,4.000000,4.000000,4.000000,4.000000,4.000000,2.000000,2.000000,4.000000,1.000000,41.666668
1600982353.927486,47.000000,0.000000,3900.000000,4632.307617,4147.692383,4263.589844,4038.461426,4633.846191,3978.461426,3912.820557,4318.974121,4064.615479,4209.230957,4180.512695,4085.128174,4021.025635,0.000000,4.000000,,,,0.000000,4.000000,4.000000,4.000000,4.000000,4.000000,4.000000,4.000000,4.000000,4.000000,4.000000,2.000000,2.000000,4.000000,1.000000,41.666668
1600982353.935214,48.000000,0.000000,3905.641113,4641.538574,4152.820313,4267.692383,4041.538574,4647.179688,3989.230713,3917.948730,4326.666504,4061.538574,4212.820313,4182.563965,4093.333252,4025.128174,0.000000,4.000000,,,,0.000000,4.000000,4.000000,4.000000,4.000000,4.000000,4.000000,4.000000,4.000000,4.000000,4.000000,2.000000,2.000000,4.000000,1.000000,41.666668
1600982353.943043,49.000000,0.000000,3904.102539,4647.179688,4149.230957,4266.153809,4043.589844,4646.666504,3988.205078,3906.666748,4337.436035,4049.743652,4208.717773,4180.512695,4085.128174,4021.025635,0.000000,4.000000,,,,0.000000,4.000000,4.000000,4.000000,4.000000,4.000000,4.000000,4.000000,4.000000,4.000000,4.000000,2.000000,2.000000,4.000000,1.000000,41.666668
1600982353.950772,50.000000,0.000000,3904.102539,4644.615234,4150.769043,4267.179688,4037.435791,4636.410156,3977.948730,3904.102539,4332.307617,4061.538574,4208.717773,4180.000000,4082.564209,4020.512939,0.000000,4.000000,,,,0.000000,4.000000,4.000000,4.000000,4.000000,4.000000,4.000000,4.000000,4.000000,4.000000,4.000000,2.000000,2.000000,4.000000,1.000000,41.666668
1600982353.958601,51.000000,0.000000,3903.076904,4639.487305,4154.871582,4265.128418,4034.871826,4636.922852,3975.384521,3909.230713,4322.563965,4065.641113,4209.230957,4177.948730,4086.666748,4025.128174,0.000000,4.000000,,,,0.000000,4.000000,4.000000,4.000000,4.000000,4.000000,4.000000,4.000000,4.000000,4.000000,4.000000,2.000000,2.000000,4.000000,1.000000,41.666668
1600982353.966328,52.000000,0.000000,3903.076904,4643.077148,4156.410156,4262.563965,4046.153809,4646.153809,3980.000000,3906.666748,4324.615234,4054.358887,4207.692383,4180.512695,4088.718018,4027.692383,0.000000,4.000000,,,,0.000000,4.000000,4.000000,4.000000,4.000000,4.000000,4.000000,4.000000,4.000000,4.000000,4.000000,2.000000,2.000000,4.000000,1.000000,41.666668
1600982353.974263,53.000000,0.000000,3912.307617,4649.230957,4157.948730,4267.692383,4046.153809,4644.615234,3978.974365,3906.153809,4329.230957,4059.487061,4213.846191,4189.230957,4094.871826,4030.769287,0.000000,4.000000,,,,0.000000,4.000000,4.000000,4.000000,4.000000,4.000000,4.000000,4.000000,4.000000,4.000000,4.000000,2.000000,2.000000,4.000000,1.000000,41.666668
1600982353.982098,54.000000,0.000000,3913.846191,4644.615234,4154.871582,4269.743652,4036.923096,4640.512695,3976.410156,3913.333252,4329.230957,4063.589844,4221.025879,4189.230957,4101.025879,4030.769287,0.000000,4.000000,,,,0.000000,4.000000,4.000000,4.000000,4.000000,4.000000,4.000000,4.000000,4.000000,4.000000,4.000000,2.000000,2.000000,4.000000,1.000000,41.666668
1600982353.990032,55.000000,0.000000,3909.230713,4643.077148,4156.410156,4268.717773,4042.564209,4643.589844,3981.538574,3920.512939,4334.871582,4062.051270,4223.589844,4188.205078,4100.000000,4029.230713,0.000000,4.000000,,,,0.000000,4.000000,4.000000,4.000000,4.000000,4.000000,4.000000,4.000000,4.000000,4.000000,4.000000,2.000000,2.000000,4.000000,1.000000,41.666668
1600982353.997866,56.000000,0.000000,3909.743652,4649.230957,4160.512695,4271.282227,4046.666748,4641.025879,3981.025635,3919.487061,4327.692383,4075.897461,4221.538574,4194.358887,4098.461426,4031.281982,0.000000,4.000000,,,,0.000000,4.000000,4.000000,4.000000,4.000000,4.000000,4.000000,4.000000,4.000000,4.000000,4.000000,2.000000,2.000000,4.000000,1.000000,41.666668
1600982354.005801,57.000000,0.000000,3909.743652,4650.769043,4154.358887,4273.333496,4040.512939,4634.871582,3975.384521,3908.718018,4312.307617,4074.358887,4214.871582,4194.358887,4095.897461,4030.256348,0.000000,4.000000,,,,0.000000,4.000000,4.000000,4.000000,4.000000,4.000000,4.000000,4.000000,4.000000,4.000000,4.000000,2.000000,2.000000,4.000000,1.000000,41.666668
1600982354.013635,58.000000,0.000000,3909.230713,4650.256348,4151.282227,4273.846191,4038.461426,4636.410156,3978.974365,3904.102539,4325.128418,4049.230713,4214.358887,4190.769043,4096.410156,4026.666748,0.000000,4.000000,,,,0.000000,4.000000,4.000000,4.000000,4.000000,4.000000,4.000000,4.000000,4.000000,4.000000,4.000000,2.000000,2.000000,4.000000,1.000000,41.666668
1600982354.021568,59.000000,0.000000,3920.512939,4656.410156,4159.487305,4278.974121,4047.692383,4648.717773,3988.718018,3918.974365,4352.307617,4055.384521,4226.153809,4196.410156,4108.205078,4031.281982,0.000000,4.000000,,,,0.000000,4.000000,4.000000,4.000000,4.000000,4.000000,4.000000,4.000000,4.000000,4.000000,4.000000,2.000000,2.000000,4.000000,1.000000,41.666668
1600982354.029401,60.000000,0.000000,3921.025635,4653.846191,4153.333496,4274.871582,4044.615479,4648.205078,3981.538574,3920.512939,4334.871582,4079.487061,4226.666504,4192.307617,4107.692383,4034.871826,0.000000,4.000000,,,,0.000000,4.000000,4.000000,4.000000,4.000000,4.000000,4.000000,4.000000,4.000000,4.000000,4.000000,2.000000,2.000000,4.000000,1.000000,41.666668
1600982354.037134,61.000000,0.000000,3910.769287,4646.153809,4143.589844,4267.692383,4036.410156,4633.333496,3973.846191,3906.153809,4306.666504,4076.410156,4217.948730,4181.025879,4097.948730,4029.743652,0.000000,4.000000,,,,0.000000,4.000000,4.000000,4.000000,4.000000,4.000000,4.000000,4.000000,4.000000,4.000000,4.000000,2.000000,2.000000,4.000000,1.000000,41.666668
1600982354.044966,62.000000,0.000000,3920.000000,4651.794922,4151.282227,4278.461426,4045.128174,4631.794922,3986.153809,3911.281982,4328.717773,4066.153809,4222.051270,4188.205078,4107.692383,4033.333252,0.000000,4.000000,,,,0.000000,4.000000,4.000000,4.000000,4.000000,4.000000,4.000000,4.000000,4.000000,4.000000,4.000000,2.000000,2.000000,4.000000,1.000000,41.666668
1600982354.052697,63.000000,0.000000,3936.923096,4664.615234,4162.563965,4291.794922,4054.358887,4648.717773,4001.538574,3929.230713,4356.410156,4071.281982,4230.769043,4197.436035,4124.615234,4040.512939,0.000000,4.000000,,,,0.000000,4.000000,4.000000,4.000000,4.000000,4.000000,4.000000,4.000000,4.000000,4.000000,4.000000,2.000000,2.000000,4.000000,1.000000,41.666668
1600982354.060529,64.000000,0.000000,3927.692383,4661.538574,4155.384766,4280.512695,4045.641113,4650.769043,3991.794922,3923.589844,4339.487305,4068.718018,4223.589844,4190.256348,4111.282227,4037.435791,415.000000,4.000000,,,,0.000000,4.000000,4.000000,4.000000,4.000000,4.000000,4.000000,4.000000,4.000000,4.000000,4.000000,2.000000,2.000000,4.000000,1.000000,41.666668
1600982354.068260,65.000000,0.000000,3915.897461,4651.794922,4147.179688,4269.230957,4038.974365,4638.461426,3974.358887,3906.153809,4318.461426,4063.589844,4216.410156,4187.179688,4089.230713,4030.769287,435.000000,4.000000,,,,0.000000,4.000000,4.000000,4.000000,4.000000,4.000000,4.000000,4.000000,4.000000,4.000000,4.000000,2.000000,2.000000,4.000000,1.000000,41.666668
1600982354.076091,66.000000,0.000000,3916.410156,4647.692383,4148.205078,4273.333496,4042.564209,4634.871582,3972.307617,3903.076904,4318.461426,4060.512939,4217.436035,4192.820313,4090.769287,4028.718018,451.000000,4.000000,,,,0.000000,4.000000,4.000000,4.000000,4.000000,4.000000,4.000000,4.000000,4.000000,4.000000,4.000000,2.000000,2.000000,4.000000,1.000000,41.666668
1600982354.083822,67.000000,0.000000,3922.051270,4651.794922,4152.307617,4278.974121,4040.512939,4640.000000,3981.538574,3911.281982,4324.615234,4055.897461,4219.487305,4194.358887,4102.563965,4031.794922,455.000000,4.000000,,,,0.000000,4.000000,4.000000,4.000000,4.000000,4.000000,4.000000,4.000000,4.000000,4.000000,4.000000,2.000000,2.000000,4.000000,1.000000,41.666668
1600982354.091652,68.000000,0.000000,3929.230713,4657.948730,4157.436035,4283.077148,4038.974365,4645.128418,3989.230713,3918.974365,4328.205078,4060.512939,4221.538574,4194.871582,4103.077148,4036.923096,469.000000,4.000000,,,,0.000000,4.000000,4.000000,4.000000,4.000000,4.000000,4.000000,4.000000,4.000000,4.000000,4.000000,2.000000,2.000000,4.000000,1.000000,41.666668
1600982354.099382,69.000000,0.000000,3931.281982,4652.307617,4157.948730,4284.102539,4044.102539,4644.615234,3988.718018,3917.948730,4323.077148,4067.179443,4221.538574,4194.871582,4096.922852,4035.897461,440.000000,4.000000,,,,0.000000,4.000000,4.000000,4.000000,4.000000,4.000000,4.000000,4.000000,4.000000,4.000000,4.000000,2.000000,2.000000,4.000000,1.000000,41.666668
1600982354.107213,70.000000,0.000000,3926.153809,4647.692383,4153.333496,4278.461426,4047.179443,4640.512695,3985.128174,3912.307617,4323.589844,4061.538574,4221.538574,4190.769043,4097.436035,4033.333252,439.000000,4.000000,,,,0.000000,4.000000,4.000000,4.000000,4.000000,4.000000,4.000000,4.000000,4.000000,4.000000,4.000000,2.000000,2.000000,4.000000,1.000000,41.666668
1600982354.114941,71.000000,0.000000,3924.102539,4653.333496,4149.230957,4274.358887,4040.000000,4641.025879,3985.641113,3911.794922,4335.897461,4053.846191,4220.512695,4189.230957,4097.948730,4034.871826,394.000000,4.000000,,,,0.000000,4.000000,4.000000,4.000000,4.000000,4.000000,4.000000,4.000000,4.000000,4.000000,4.000000,2.000000,2.000000,4.000000,1.000000,41.666668
1600982354.122770,72.000000,0.000000,3927.179443,4653.333496,4149.230957,4276.410156,4030.769287,4644.102539,3986.153809,3918.461426,4339.487305,4063.076904,4220.512695,4191.794922,4096.922852,4035.384521,395.000000,4.000000,,,,0.000000,4.000000,4.000000,4.000000,4.000000,4.000000,4.000000,4.000000,4.000000,4.000000,4.000000,2.000000,2.000000,4.000000,1.000000,41.666668
1600982354.130499,73.000000,0.000000,3920.512939,4641.538574,4150.256348,4272.820313,4031.794922,4641.025879,3982.564209,3917.435791,4325.641113,4069.743652,4220.000000,4195.897461,4095.897461,4034.871826,404.000000,4.000000,,,,0.000000,4.000000,4.000000,4.000000,4.000000,4.000000,4.000000,4.000000,4.000000,4.000000,4.000000,2.000000,2.000000,4.000000,1.000000,41.666668
1600982354.138435,74.000000,0.000000,3920.000000,4645.641113,4156.410156,4275.897461,4044.615479,4641.538574,3988.718018,3915.384521,4327.692383,4070.256348,4225.641113,4200.000000,4100.000000,4036.923096,436.000000,4.000000,,,,0.000000,4.000000,4.000000,4.000000,4.000000,4.000000,4.000000,4.000000,4.000000,4.000000,4.000000,2.000000,2.000000,4.000000,1.000000,41.666668
1600982354.146271,75.000000,0.000000,3929.230713,4656.410156,4155.897461,4281.025879,4044.615479,4640.000000,3992.307617,3920.512939,4338.461426,4068.718018,4229.743652,4198.461426,4104.102539,4035.897461,124.000000,4.000000,,,,0.000000,4.000000,4.000000,4.000000,4.000000,4.000000,4.000000,4.000000,4.000000,4.000000,4.000000,2.000000,2.000000,4.000000,1.000000,41.666668
1600982354.154206,76.000000,0.000000,3928.718018,4646.153809,4142.563965,4274.871582,4030.769287,4634.871582,3982.564209,3922.051270,4330.256348,4064.615479,4227.179688,4193.846191,4100.512695,4032.820557,315.000000,4.000000,,,,0.000000,4.000000,4.000000,4.000000,4.000000,4.000000,4.000000,4.000000,4.000000,4.000000,4.000000,2.000000,2.000000,4.000000,1.000000,41.666668
1600982354.162041,77.000000,0.000000,3920.512939,4636.922852,4136.922852,4269.230957,4026.666748,4638.974121,3976.923096,3915.897461,4325.128418,4058.461426,4224.102539,4193.333496,4093.846191,4033.333252,300.000000,4.000000,,,,0.000000,4.000000,4.000000,4.000000,4.000000,4.000000,4.000000,4.000000,4.000000,4.000000,4.000000,2.000000,2.000000,4.000000,1.000000,41.666668
1600982354.169977,78.000000,0.000000,3923.076904,4647.179688,4145.641113,4273.846191,4038.461426,4648.717773,3986.153809,3914.871826,4338.461426,4064.615479,4225.128418,4193.333496,4096.410156,4033.846191,436.000000,4.000000,,,,0.000000,4.000000,4.000000,4.000000,4.000000,4.000000,4.000000,4.000000,4.000000,4.000000,4.000000,2.000000,2.000000,4.000000,1.000000,41.666668
1600982354.177812,79.000000,0.000000,3930.256348,4656.410156,4151.282227,4279.487305,4041.025635,4643.589844,3991.281982,3921.025635,4340.512695,4077.948730,4226.666504,4189.230957,4103.077148,4033.333252,124.000000,4.000000,,,,0.000000,4.000000,4.000000,4.000000,4.000000,4.000000,4.000000,4.000000,4.000000,4.000000,4.000000,2.000000,2.000000,4.000000,1.000000,41.666668
1600982354.185746,80.000000,0.000000,3927.179443,4650.256348,4145.128418,4277.436035,4031.281982,4636.410156,3986.666748,3917.948730,4329.230957,4070.769287,4223.077148,4186.666504,4101.538574,4031.794922,315.000000,4.000000,,,,0.000000,4.000000,4.000000,4.000000,4.000000,4.000000,4.000000,4.000000,4.000000,4.000000,4.000000,2.000000,2.000000,4.000000,1.000000,41.666668
1600982354.193580,81.000000,0.000000,3926.153809,4645.128418,4143.077148,4276.410156,4036.923096,4639.487305,3985.128174,3915.897461,4336.410156,4059.487061,4222.563965,4192.307617,4099.487305,4032.820557,300.000000,4.000000,,,,0.000000,4.000000,4.000000,4.000000,4.000000,4.000000,4.000000,4.000000,4.000000,4.000000,4.000000,2.000000,2.000000,4.000000,1.000000,41.666668
1600982354.201514,82.000000,0.000000,3934.871826,4651.282227,4151.794922,4281.538574,4048.718018,4643.077148,3989.230713,3929.230713,4347.692383,4073.333252,4227.692383,4199.487305,4103.077148,4036.410156,436.000000,4.000000,,,,0.000000,4.000000,4.000000,4.000000,4.000000,4.000000,4.000000,4.000000,4.000000,4.000000,4.000000,2.000000,2.000000,4.000000,1.000000,41.666668
1600982354.209348,83.000000,0.000000,3939.487061,4654.871582,4155.897461,4283.589844,4043.076904,4645.641113,3993.846191,3934.358887,4340.512695,4082.564209,4229.230957,4198.461426,4106.666504,4040.000000,124.000000,4.000000,,,,0.000000,4.000000,4.000000,4.000000,4.000000,4.000000,4.000000,4.000000,4.000000,4.000000,4.000000,2.000000,2.000000,4.000000,1.000000,41.666668
1600982354.217281,84.000000,0.000000,3931.794922,4647.692383,4149.230957,4275.384766,4032.820557,4646.153809,3991.794922,3918.461426,4336.922852,4068.205078,4224.102539,4189.743652,4104.615234,4035.384521,315.000000,4.000000,,,,0.000000,4.000000,4.000000,4.000000,4.000000,4.000000,4.000000,4.000000,4.000000,4.000000,4.000000,2.000000,2.000000,4.000000,1.000000,41.666668
1600982354.225114,85.000000,0.000000,3924.102539,4637.436035,4147.179688,4268.717773,4032.820557,4635.897461,3980.512939,3910.256348,4338.461426,4068.718018,4220.000000,4190.769043,4097.436035,4033.333252,300.000000,4.000000,,,,0.000000,4.000000,4.000000,4.000000,4.000000,4.000000,4.000000,4.000000,4.000000,4.000000,4.000000,2.000000,2.000000,4.000000,1.000000,41.666668
1600982354.232846,86.000000,0.000000,3931.794922,4645.128418,4154.871582,4278.974121,4044.102539,4635.384766,3979.487061,3921.025635,4342.051270,4082.564209,4223.077148,4197.948730,4099.487305,4037.435791,436.000000,4.000000,,,,0.000000,4.000000,4.000000,4.000000,4.000000,4.000000,4.000000,4.000000,4.000000,4.000000,4.000000,2.000000,2.000000,4.000000,1.000000,41.666668
1600982354.240678,87.000000,0.000000,3938.461426,4654.871582,4155.897461,4286.666504,4053.333252,4648.205078,3986.153809,3917.948730,4343.589844,4074.358887,4224.615234,4195.384766,4104.615234,4037.435791,124.000000,4.000000,,,,0.000000,4.000000,4.000000,4.000000,4.000000,4.000000,4.000000,4.000000,4.000000,4.000000,4.000000,2.000000,2.000000,4.000000,1.000000,41.666668
1600982354.248410,88.000000,0.000000,3934.358887,4649.743652,4152.307617,4281.538574,4046.666748,4646.153809,3985.128174,3906.153809,4337.436035,4058.974365,4224.102539,4194.358887,4102.051270,4034.358887,315.000000,4.000000,,,,0.000000,4.000000,4.000000,4.000000,4.000000,4.000000,4.000000,4.000000,4.000000,4.000000,4.000000,2.000000,2.000000,4.000000,1.000000,41.666668
1600982354.256242,89.000000,0.000000,3930.256348,4642.563965,4147.179688,4275.384766,4034.358887,4637.948730,3982.564209,3910.256348,4333.333496,4057.435791,4222.563965,4195.897461,4095.384521,4032.307617,300.000000,4.000000,,,,0.000000,4.000000,4.000000,4.000000,4.000000,4.000000,4.000000,4.000000,4.000000,4.000000,4.000000,2.000000,2.000000,4.000000,1.000000,41.666668
1600982354.263973,90.000000,0.000000,3922.564209,4640.000000,4135.384766,4271.282227,4030.256348,4638.461426,3982.564209,3910.256348,4327.179688,4058.461426,4214.871582,4189.230957,4090.769287,4030.256348,436.000000,4.000000,,,,0.000000,4.000000,4.000000,4.000000,4.000000,4.000000,4.000000,4.000000,4.000000,4.000000,4.000000,2.000000,2.000000,4.000000,1.000000,41.666668
1600982354.271803,91.000000,0.000000,3922.051270,4642.563965,4139.487305,4274.358887,4036.923096,4643.077148,3988.205078,3908.718018,4326.666504,4064.102539,4216.410156,4188.717773,4093.333252,4031.794922,124.000000,4.000000,,,,0.000000,4.000000,4.000000,4.000000,4.000000,4.000000,4.000000,4.000000,4.000000,4.000000,4.000000,2.000000,2.000000,4.000000,1.000000,41.666668
1600982354.279534,92.000000,0.000000,3927.179443,4644.102539,4153.333496,4276.922852,4040.000000,4644.615234,3994.871826,3915.897461,4336.410156,4066.666748,4224.615234,4196.410156,4096.410156,4037.435791,315.000000,4.000000,,,,0.000000,4.000000,4.000000,4.000000,4.000000,4.000000,4.000000,4.000000,4.000000,4.000000,4.000000,2.000000,2.000000,4.000000,1.000000,41.666668
1600982354.287364,93.000000,0.000000,3927.179443,4644.615234,4153.846191,4275.384766,4036.923096,4640.000000,3995.384521,3920.512939,4345.641113,4064.615479,4225.128418,4195.384766,4099.487305,4035.384521,300.000000,4.000000,,,,0.000000,4.000000,4.000000,4.000000,4.000000,4.000000,4.000000,4.000000,4.000000,4.000000,4.000000,2.000000,2.000000,4.000000,1.000000,41.666668
1600982354.295094,94.000000,0.000000,3921.538574,4638.461426,4147.692383,4270.769043,4033.333252,4632.307617,3986.153809,3913.333252,4337.948730,4067.179443,4222.051270,4188.717773,4101.025879,4032.307617,436.000000,4.000000,,,,0.000000,4.000000,4.000000,4.000000,4.000000,4.000000,4.000000,4.000000,4.000000,4.000000,4.000000,2.000000,2.000000,4.000000,1.000000,41.666668
1600982354.302923,95.000000,0.000000,3928.205078,4638.974121,4154.871582,4275.897461,4039.487061,4635.384766,3986.153809,3915.384521,4336.410156,4074.358887,4229.743652,4196.922852,4103.589844,4036.410156,124.000000,4.000000,,,,0.000000,4.000000,4.000000,4.000000,4.000000,4.000000,4.000000,4.000000,4.000000,4.000000,4.000000,2.000000,2.000000,4.000000,1.000000,41.666668
1600982354.310652,96.000000,0.000000,3935.897461,4649.230957,4163.077148,4282.563965,4045.128174,4640.000000,3993.333252,3922.051270,4345.641113,4072.307617,4235.384766,4206.153809,4104.102539,4039.487061,315.000000,4.000000,,,,0.000000,4.000000,4.000000,4.000000,4.000000,4.000000,4.000000,4.000000,4.000000,4.000000,4.000000,2.000000,2.000000,4.000000,1.000000,41.666668
1600982354.318481,97.000000,0.000000,3933.846191,4653.846191,4160.000000,4281.025879,4045.128174,4636.922852,3991.281982,3917.435791,4340.512695,4066.666748,4229.743652,4201.538574,4100.512695,4035.384521,300.000000,4.000000,,,,0.000000,4.000000,4.000000,4.000000,4.000000,4.000000,4.000000,4.000000,4.000000,4.000000,4.000000,2.000000,2.000000,4.000000,1.000000,41.666668
1600982354.326209,98.000000,0.000000,3927.692383,4645.641113,4153.333496,4274.871582,4043.076904,4635.897461,3980.512939,3908.205078,4327.692383,4061.025635,4221.025879,4192.820313,4095.384521,4032.307617,436.000000,4.000000,,,,0.000000,4.000000,4.000000,4.000000,4.000000,4.000000,4.000000,4.000000,4.000000,4.000000,4.000000,2.000000,2.000000,4.000000,1.000000,41.666668
1600982354.334037,99.000000,0.000000,3921.538574,4636.410156,4148.717773,4270.769043,4038.461426,4640.512695,3976.923096,3903.589844,4323.589844,4055.897461,4216.922852,4194.871582,4090.769287,4031.281982,124.000000,4.000000,,,,0.000000,4.000000,4.000000,4.000000,4.000000,4.000000,4.000000,4.000000,4.000000,4.000000,4.000000,2.000000,2.000000,4.000000,1.000000,41.666668
1600982354.341764,100.000000,0.000000,3922.564209,4640.000000,4149.230957,4272.820313,4037.948730,4645.128418,3990.256348,3910.256348,4327.692383,4062.051270,4225.641113,4201.538574,4093.846191,4032.820557,315.000000,4.000000,,,,0.000000,4.000000,4.000000,4.000000,4.000000,4.000000,4.000000,4.000000,4.000000,4.000000,4.000000,2.000000,2.000000,4.000000,1.000000,41.666668
1600982354.349700,101.000000,0.000000,3929.743652,4648.717773,4151.794922,4274.871582,4045.641113,4648.205078,3997.948730,3918.974365,4338.974121,4071.281982,4232.307617,4199.487305,4103.077148,4033.846191,300.000000,4.000000,,,,0.000000,4.000000,4.000000,4.000000,4.000000,4.000000,4.000000,4.000000,4.000000,4.000000,4.000000,2.000000,2.000000,4.000000,1.000000,41.666668
1600982354.357535,102.000000,0.000000,3932.307617,4648.717773,4153.846191,4271.794922,4048.718018,4649.230957,3988.718018,3919.487061,4345.128418,4075.384521,4229.743652,4194.871582,4106.666504,4034.871826,436.000000,4.000000,,,,0.000000,4.000000,4.000000,4.000000,4.000000,4.000000,4.000000,4.000000,4.000000,4.000000,4.000000,2.000000,2.000000,4.000000,1.000000,41.666668
1600982354.365469,103.000000,0.000000,3926.666748,4638.974121,4151.794922,4267.179688,4042.564209,4642.051270,3981.538574,3913.846191,4337.948730,4067.692383,4224.615234,4196.410156,4099.487305,4032.820557,124.000000,4.000000,,,,0.000000,4.000000,4.000000,4.000000,4.000000,4.000000,4.000000,4.000000,4.000000,4.000000,4.000000,2.000000,2.000000,4.000000,1.000000,41.666668
1600982354.373304,104.000000,0.000000,3926.666748,4640.512695,4149.743652,4271.282227,4043.076904,4634.871582,3986.153809,3918.974365,4343.077148,4063.076904,4224.615234,4200.512695,4096.410156,4031.794922,315.000000,4.000000,,,,0.000000,4.000000,4.000000,4.000000,4.000000,4.000000,4.000000,4.000000,4.000000,4.000000,4.000000,2.000000,2.000000,4.000000,1.000000,41.666668
1600982354.381237,105.000000,0.000000,3933.846191,4653.846191,4153.333496,4274.871582,4048.205078,4632.307617,3985.641113,3927.692383,4347.179688,4084.102539,4229.230957,4200.512695,4104.615234,4033.846191,300.000000,4.000000,,,,0.000000,4.000000,4.000000,4.000000,4.000000,4.000000,4.000000,4.000000,4.000000,4.000000,4.000000,2.000000,2.000000,4.000000,1.000000,41.666668
1600982354.389071,106.000000,0.000000,3930.256348,4646.666504,4152.307617,4268.717773,4046.153809,4635.384766,3981.538574,3921.538574,4332.820313,4092.820557,4228.205078,4195.897461,4106.153809,4031.794922,436.000000,4.000000,,,,0.000000,4.000000,4.000000,4.000000,4.000000,4.000000,4.000000,4.000000,4.000000,4.000000,4.000000,2.000000,2.000000,4.000000,1.000000,41.666668
1600982354.397003,107.000000,0.000000,3918.461426,4628.717773,4143.077148,4262.563965,4037.435791,4636.922852,3979.487061,3912.307617,4332.307617,4062.564209,4218.461426,4193.333496,4093.846191,4026.153809,124.000000,4.000000,,,,0.000000,4.000000,4.000000,4.000000,4.000000,4.000000,4.000000,4.000000,4.000000,4.000000,4.000000,2.000000,2.000000,4.000000,1.000000,41.666668
1600982354.404836,108.000000,0.000000,3921.025635,4636.410156,4146.666504,4267.692383,4035.897461,4637.436035,3981.538574,3918.974365,4351.794922,4045.128174,4215.897461,4195.897461,4091.794922,4028.718018,315.000000,4.000000,,,,0.000000,4.000000,4.000000,4.000000,4.000000,4.000000,4.000000,4.000000,4.000000,4.000000,4.000000,2.000000,2.000000,4.000000,1.000000,41.666668
1600982354.412568,109.000000,0.000000,3928.718018,4648.717773,4160.512695,4272.820313,4037.948730,4637.948730,3982.564209,3918.974365,4346.666504,4062.051270,4220.000000,4197.948730,4095.897461,4035.897461,300.000000,4.000000,,,,0.000000,4.000000,4.000000,4.000000,4.000000,4.000000,4.000000,4.000000,4.000000,4.000000,4.000000,2.000000,2.000000,4.000000,1.000000,41.666668
1600982354.420400,110.000000,0.000000,3931.794922,4646.666504,4170.256348,4272.820313,4041.025635,4635.897461,3978.974365,3907.692383,4335.897461,4075.897461,4222.051270,4198.974121,4096.922852,4033.333252,436.000000,4.000000,,,,0.000000,4.000000,4.000000,4.000000,4.000000,4.000000,4.000000,4.000000,4.000000,4.000000,4.000000,2.000000,2.000000,4.000000,1.000000,41.666668
1600982354.428132,111.000000,0.000000,3928.205078,4643.077148,4169.230957,4270.256348,4040.000000,4634.871582,3974.871826,3908.205078,4343.077148,4076.410156,4222.051270,4199.487305,4094.358887,4032.307617,124.000000,4.000000,,,,0.000000,4.000000,4.000000,4.000000,4.000000,4.000000,4.000000,4.000000,4.000000,4.000000,4.000000,2.000000,2.000000,4.000000,1.000000,41.666668
1600982354.435963,112.000000,0.000000,3924.102539,4643.077148,4159.487305,4270.256348,4038.461426,4636.410156,3977.435791,3917.948730,4341.538574,4081.538574,4221.025879,4197.436035,4092.307617,4032.820557,315.000000,4.000000,,,,0.000000,4.000000,4.000000,4.000000,4.000000,4.000000,4.000000,4.000000,4.000000,4.000000,4.000000,2.000000,2.000000,4.000000,1.000000,41.666668
1600982354.443694,113.000000,0.000000,3924.102539,4640.000000,4147.179688,4270.256348,4039.487061,4636.410156,3981.538574,3917.948730,4334.358887,4075.384521,4217.436035,4194.871582,4088.718018,4029.230713,300.000000,4.000000,,,,0.000000,4.000000,4.000000,4.000000,4.000000,4.000000,4.000000,4.000000,4.000000,4.000000,4.000000,2.000000,2.000000,4.000000,1.000000,41.666668
1600982354.451525,114.000000,0.000000,3924.615479,4639.487305,4143.589844,4270.256348,4044.102539,4633.333496,3983.076904,3915.384521,4342.563965,4063.076904,4217.436035,4194.358887,4085.641113,4028.205078,436.000000,4.000000,,,,0.000000,4.000000,4.000000,4.000000,4.000000,4.000000,4.000000,4.000000,4.000000,4.000000,4.000000,2.000000,2.000000,4.000000,1.000000,41.666668
1600982354.459255,115.000000,0.000000,3922.564209,4643.589844,4147.179688,4272.307617,4043.589844,4630.769043,3981.538574,3918.461426,4351.282227,4066.153809,4218.974121,4193.846191,4089.230713,4029.743652,124.000000,4.000000,,,,0.000000,4.000000,4.000000,4.000000,4.000000,4.000000,4.000000,4.000000,4.000000,4.000000,4.000000,2.000000,2.000000,4.000000,1.000000,41.666668
1600982354.467085,116.000000,0.000000,3919.487061,4646.153809,4143.589844,4271.282227,4043.076904,4637.436035,3982.051270,3927.179443,4350.769043,4074.358887,4220.512695,4189.230957,4092.307617,4025.128174,315.000000,4.000000,,,,0.000000,4.000000,4.000000,4.000000,4.000000,4.000000,4.000000,4.000000,4.000000,4.000000,4.000000,2.000000,2.000000,4.000000,1.000000,41.666668
1600982354.474815,117.000000,0.000000,3908.205078,4643.077148,4132.307617,4260.000000,4048.205078,4641.538574,3981.538574,3925.641113,4343.589844,4066.666748,4216.410156,4182.051270,4084.615479,4020.000000,300.000000,4.000000,,,,0.000000,4.000000,4.000000,4.000000,4.000000,4.000000,4.000000,4.000000,4.000000,4.000000,4.000000,2.000000,2.000000,4.000000,1.000000,41.666668
1600982354.482644,118.000000,0.000000,3895.897461,4637.436035,4127.179688,4253.846191,4048.718018,4627.179688,3974.871826,3907.179443,4328.205078,4053.846191,4207.179688,4177.436035,4073.846191,4018.461426,436.000000,4.000000,,,,0.000000,4.000000,4.000000,4.000000,4.000000,4.000000,4.000000,4.000000,4.000000,4.000000,4.000000,2.000000,2.000000,4.000000,1.000000,41.666668
1600982354.490373,119.000000,0.000000,3904.615479,4645.128418,4135.897461,4266.153809,4044.615479,4623.589844,3974.358887,3901.538574,4327.692383,4053.333252,4213.333496,4184.102539,4084.102539,4020.000000,124.000000,4.000000,,,,0.000000,4.000000,4.000000,4.000000,4.000000,4.000000,4.000000,4.000000,4.000000,4.000000,4.000000,2.000000,2.000000,4.000000,1.000000,41.666668
1600982354.498202,120.000000,0.000000,3912.820557,4654.358887,4142.051270,4276.410156,4046.666748,4644.102539,3982.564209,3913.333252,4342.563965,4052.820557,4224.615234,4189.743652,4094.871826,4021.538574,315.000000,4.000000,,,,0.000000,4.000000,4.000000,4.000000,4.000000,4.000000,4.000000,4.000000,4.000000,4.000000,4.000000,2.000000,2.000000,4.000000,1.000000,41.666668
1600982354.505930,121.000000,0.000000,3903.589844,4655.897461,4136.410156,4274.358887,4053.846191,4652.307617,3982.564209,3916.410156,4343.077148,4056.410156,4221.025879,4186.666504,4087.692383,4020.000000,300.000000,4.000000,,,,0.000000,4.000000,4.000000,4.000000,4.000000,4.000000,4.000000,4.000000,4.000000,4.000000,4.000000,2.000000,2.000000,4.000000,1.000000,41.666668
1600982354.513758,122.000000,0.000000,3895.384521,4656.922852,4133.846191,4270.256348,4055.384521,4637.436035,3981.538574,3909.230713,4332.820313,4059.487061,4214.358887,4180.512695,4083.076904,4017.435791,436.000000,4.000000,,,,0.000000,4.000000,4.000000,4.000000,4.000000,4.000000,4.000000,4.000000,4.000000,4.000000,4.000000,2.000000,2.000000,4.000000,1.000000,41.666668
1600982354.521485,123.000000,0.000000,3896.923096,4655.384766,4136.922852,4270.256348,4046.666748,4627.692383,3984.102539,3907.692383,4335.384766,4054.358887,4217.948730,4176.922852,4087.692383,4018.461426,124.000000,4.000000,,,,0.000000,4.000000,4.000000,4.000000,4.000000,4.000000,4.000000,4.000000,4.000000,4.000000,4.000000,2.000000,2.000000,4.000000,1.000000,41.666668
1600982354.529420,124.000000,0.000000,3896.410156,4651.794922,4139.487305,4270.769043,4035.384521,4625.128418,3975.384521,3908.718018,4331.794922,4053.846191,4220.512695,4176.410156,4086.666748,4021.538574,315.000000,4.000000,,,,0.000000,4.000000,4.000000,4.000000,4.000000,4.000000,4.000000,4.000000,4.000000,4.000000,4.000000,2.000000,2.000000,4.000000,1.000000,41.666668
1600982354.537254,125.000000,0.000000,3899.487061,4657.436035,4145.641113,4273.333496,4041.538574,4624.615234,3972.820557,3912.307617,4329.743652,4056.923096,4225.128418,4178.461426,4087.179443,4024.102539,300.000000,4.000000,,,,0.000000,4.000000,4.000000,4.000000,4.000000,4.000000,4.000000,4.000000,4.000000,4.000000,4.000000,2.000000,2.000000,4.000000,1.000000,41.666668
1600982354.545188,126.000000,0.000000,3903.589844,4661.025879,4148.717773,4274.358887,4046.666748,4629.230957,3984.102539,3917.435791,4346.153809,4052.820557,4229.230957,4179.487305,4091.281982,4025.641113,436.000000,4.000000,,,,0.000000,4.000000,4.000000,4.000000,4.000000,4.000000,4.000000,4.000000,4.000000,4.000000,4.000000,2.000000,2.000000,4.000000,1.000000,41.666668
1600982354.553022,127.000000,0.000000,3902.564209,4656.410156,4142.563965,4271.282227,4035.384521,4635.384766,3983.076904,3915.897461,4348.717773,4050.256348,4225.128418,4177.948730,4089.230713,4022.051270,124.000000,4.000000,,,,0.000000,4.000000,4.000000,4.000000,4.000000,4.000000,4.000000,4.000000,4.000000,4.000000,4.000000,2.000000,2.000000,4.000000,1.000000,41.666668
1600982354.560956,128.000000,0.000000,3900.512939,4653.846191,4138.461426,4267.179688,4031.281982,4628.717773,3973.333252,3912.307617,4333.333496,4052.307617,4221.025879,4177.948730,4085.128174,4019.487061,315.000000,4.000000,,,,0.000000,4.000000,4.000000,4.000000,4.000000,4.000000,4.000000,4.000000,4.000000,4.000000,4.000000,2.000000,2.000000,4.000000,1.000000,41.666668
1600982354.568789,0.000000,0.000000,3905.128174,4660.000000,4146.153809,4269.743652,4043.076904,4625.641113,3983.589844,3915.384521,4338.461426,4059.487061,4227.692383,4182.051270,4093.846191,4023.589844,414.000000,4.000000,,,,0.000000,4.000000,4.000000,4.000000,4.000000,4.000000,4.000000,4.000000,4.000000,4.000000,4.000000,2.000000,2.000000,4.000000,1.000000,41.666668
1600982354.576722,1.000000,0.000000,3905.641113,4662.051270,4146.666504,4271.282227,4044.615479,4636.922852,3992.307617,3911.794922,4345.128418,4063.589844,4230.769043,4182.563965,4096.922852,4026.153809,436.000000,4.000000,,,,0.000000,4.000000,4.000000,4.000000,4.000000,4.000000,4.000000,4.000000,4.000000,4.000000,4.000000,2.000000,2.000000,4.000000,1.000000,41.666668
1600982354.584554,2.000000,0.000000,3900.512939,4658.461426,4137.948730,4266.666504,4040.000000,4641.025879,3979.487061,3901.538574,4331.282227,4054.358887,4224.615234,4179.487305,4087.179443,4023.076904,451.000000,4.000000,,,,0.000000,4.000000,4.000000,4.000000,4.000000,4.000000,4.000000,4.000000,4.000000,4.000000,4.000000,2.000000,2.000000,4.000000,1.000000,41.666668
1600982354.592386,3.000000,0.000000,3903.076904,4659.487305,4137.948730,4267.179688,4043.589844,4628.205078,3974.358887,3906.666748,4336.410156,4051.794922,4225.641113,4183.589844,4088.718018,4023.076904,457.000000,4.000000,,,,0.000000,4.000000,4.000000,4.000000,4.000000,4.000000,4.000000,4.000000,4.000000,4.000000,4.000000,2.000000,2.000000,4.000000,1.000000,41.666668
1600982354.600218,4.000000,0.000000,3904.102539,4661.538574,4136.410156,4268.717773,4037.435791,4621.538574,3979.487061,3918.461426,4354.358887,4065.641113,4228.717773,4190.256348,4097.436035,4021.538574,471.000000,4.000000,,,,0.000000,4.000000,4.000000,4.000000,4.000000,4.000000,4.000000,4.000000,4.000000,4.000000,4.000000,2.000000,2.000000,4.000000,1.000000,41.666668
1600982354.607950,5.000000,0.000000,3895.384521,4657.436035,4127.179688,4261.538574,4031.281982,4623.589844,3977.948730,3911.281982,4339.487305,4066.666748,4219.487305,4188.717773,4088.718018,4016.410156,444.000000,4.000000,,,,0.000000,4.000000,4.000000,4.000000,4.000000,4.000000,4.000000,4.000000,4.000000,4.000000,4.000000,2.000000,2.000000,4.000000,1.000000,41.666668
1600982354.615781,6.000000,0.000000,3893.846191,4653.333496,4129.743652,4255.897461,4036.410156,4625.641113,3974.871826,3900.000000,4321.538574,4049.743652,4211.282227,4188.205078,4076.410156,4016.923096,441.000000,4.000000,,,,0.000000,4.000000,4.000000,4.000000,4.000000,4.000000,4.000000,4.000000,4.000000,4.000000,4.000000,2.000000,2.000000,4.000000,1.000000,41.666668
1600982354.623512,7.000000,0.000000,3904.102539,4656.922852,4142.563965,4262.051270,4038.461426,4630.256348,3978.461426,3906.153809,4334.358887,4043.076904,4218.461426,4191.794922,4082.051270,4021.025635,393.000000,4.000000,,,,0.000000,4.000000,4.000000,4.000000,4.000000,4.000000,4.000000,4.000000,4.000000,4.000000,4.000000,2.000000,2.000000,4.000000,1.000000,41.666668
1600982354.631342,8.000000,0.000000,3906.666748,4658.461426,4141.538574,4266.153809,4035.897461,4622.563965,3977.435791,3909.743652,4343.589844,4046.666748,4223.077148,4187.179688,4087.692383,4018.461426,399.000000,4.000000,,,,0.000000,4.000000,4.000000,4.000000,4.000000,4.000000,4.000000,4.000000,4.000000,4.000000,4.000000,2.000000,2.000000,4.000000,1.000000,41.666668
1600982354.639072,9.000000,0.000000,3898.974365,4655.897461,4133.846191,4262.051270,4036.923096,4614.358887,3974.871826,3905.641113,4334.358887,4045.128174,4213.846191,4177.436035,4080.512939,4015.897461,403.000000,4.000000,,,,0.000000,4.000000,4.000000,4.000000,4.000000,4.000000,4.000000,4.000000,4.000000,4.000000,4.000000,2.000000,2.000000,4.000000,1.000000,41.666668
1600982354.646902,10.000000,0.000000,3896.923096,4654.358887,4133.846191,4257.948730,4037.435791,4624.615234,3976.410156,3909.743652,4333.333496,4046.153809,4210.256348,4175.384766,4077.435791,4019.487061,434.000000,4.000000,,,,0.000000,4.000000,4.000000,4.000000,4.000000,4.000000,4.000000,4.000000,4.000000,4.000000,4.000000,2.000000,2.000000,4.000000,1.000000,41.666668
1600982354.654632,11.000000,0.000000,3908.718018,4660.000000,4137.948730,4263.589844,4036.923096,4632.820313,3982.564209,3922.051270,4348.205078,4060.512939,4223.589844,4184.102539,4090.769287,4021.025635,125.000000,4.000000,,,,0.000000,4.000000,4.000000,4.000000,4.000000,4.000000,4.000000,4.000000,4.000000,4.000000,4.000000,2.000000,2.000000,4.000000,1.000000,41.666668
1600982354.662461,12.000000,0.000000,3918.461426,4662.563965,4144.102539,4270.769043,4036.410156,4631.282227,3983.076904,3919.487061,4354.358887,4067.179443,4233.333496,4192.820313,4101.538574,4022.051270,315.000000,4.000000,,,,0.000000,4.000000,4.000000,4.000000,4.000000,4.000000,4.000000,4.000000,4.000000,4.000000,4.000000,2.000000,2.000000,4.000000,1.000000,41.666668
1600982354.670190,13.000000,0.000000,3914.871826,4653.846191,4143.589844,4267.692383,4030.769287,4632.820313,3973.846191,3907.179443,4345.641113,4062.564209,4228.205078,4189.743652,4096.410156,4022.564209,300.000000,4.000000,,,,0.000000,4.000000,4.000000,4.000000,4.000000,4.000000,4.000000,4.000000,4.000000,4.000000,4.000000,2.000000,2.000000,4.000000,1.000000,41.666668
1600982354.678018,14.000000,0.000000,3901.538574,4639.487305,4127.692383,4254.358887,4020.000000,4625.641113,3967.692383,3901.025635,4332.307617,4057.435791,4215.384766,4177.948730,4080.000000,4020.000000,434.000000,4.000000,,,,0.000000,4.000000,4.000000,4.000000,4.000000,4.000000,4.000000,4.000000,4.000000,4.000000,4.000000,2.000000,2.000000,4.000000,1.000000,41.666668
1600982354.685746,15.000000,0.000000,3901.025635,4642.051270,4123.077148,4254.871582,4026.153809,4622.563965,3978.461426,3905.641113,4337.436035,4056.410156,4214.358887,4176.922852,4077.435791,4020.512939,125.000000,4.000000,,,,0.000000,4.000000,4.000000,4.000000,4.000000,4.000000,4.000000,4.000000,4.000000,4.000000,4.000000,2.000000,2.000000,4.000000,1.000000,41.666668
1600982354.693574,16.000000,0.000000,3914.871826,4653.333496,4138.974121,4268.205078,4040.000000,4636.922852,3988.718018,3915.897461,4355.897461,4063.076904,4222.563965,4183.077148,4089.230713,4026.153809,0.000000,4.000000,,,,0.000000,4.000000,4.000000,4.000000,4.000000,4.000000,4.000000,4.000000,4.000000,4.000000,4.000000,2.000000,2.000000,4.000000,1.000000,41.666668
1600982354.701302,17.000000,0.000000,3918.974365,4652.307617,4152.307617,4272.820313,4042.051270,4646.666504,3988.205078,3925.128174,4360.000000,4071.281982,4221.538574,4181.025879,4092.307617,4024.615479,0.000000,4.000000,,,,0.000000,4.000000,4.000000,4.000000,4.000000,4.000000,4.000000,4.000000,4.000000,4.000000,4.000000,2.000000,2.000000,4.000000,1.000000,41.666668
1600982354.709129,18.000000,0.000000,3905.128174,4640.512695,4150.769043,4261.025879,4035.384521,4638.974121,3983.076904,3917.435791,4343.589844,4063.589844,4212.820313,4176.922852,4079.487061,4015.897461,0.000000,4.000000,,,,0.000000,4.000000,4.000000,4.000000,4.000000,4.000000,4.000000,4.000000,4.000000,4.000000,4.000000,2.000000,2.000000,4.000000,1.000000,41.666668
1600982354.716856,19.000000,0.000000,3900.512939,4637.436035,4152.820313,4257.948730,4037.435791,4636.410156,3982.051270,3911.281982,4341.025879,4052.820557,4216.410156,4177.948730,4075.384521,4013.333252,0.000000,4.000000,,,,0.000000,4.000000,4.000000,4.000000,4.000000,4.000000,4.000000,4.000000,4.000000,4.000000,4.000000,2.000000,2.000000,4.000000,1.000000,41.666668
1600982354.724789,20.000000,0.000000,3905.128174,4640.512695,4157.436035,4261.025879,4040.512939,4641.538574,3982.564209,3923.076904,4356.922852,4057.948730,4226.666504,4177.436035,4087.179443,4018.974365,0.000000,4.000000,,,,0.000000,4.000000,4.000000,4.000000,4.000000,4.000000,4.000000,4.000000,4.000000,4.000000,4.000000,2.000000,2.000000,4.000000,1.000000,41.666668
1600982354.732623,21.000000,0.000000,3900.512939,4632.307617,4156.410156,4254.358887,4031.281982,4633.333496,3977.435791,3919.487061,4349.743652,4059.487061,4219.487305,4174.871582,4085.128174,4018.974365,0.000000,4.000000,,,,0.000000,4.000000,4.000000,4.000000,4.000000,4.000000,4.000000,4.000000,4.000000,4.000000,4.000000,2.000000,2.000000,4.000000,1.000000,41.666668
1600982354.740556,22.000000,0.000000,3902.564209,4633.333496,4163.589844,4257.436035,4032.820557,4628.717773,3980.000000,3912.307617,4337.436035,4063.589844,4214.358887,4181.538574,4081.025635,4018.974365,0.000000,4.000000,,,,0.000000,4.000000,4.000000,4.000000,4.000000,4.000000,4.000000,4.000000,4.000000,4.000000,4.000000,2.000000,2.000000,4.000000,1.000000,41.666668
1600982354.748389,23.000000,0.000000,3915.384521,4644.615234,4174.358887,4269.743652,4043.076904,4640.000000,3989.230713,3926.666748,4350.256348,4070.769287,4222.051270,4187.179688,4086.666748,4024.615479,0.000000,4.000000,,,,0.000000,4.000000,4.000000,4.000000,4.000000,4.000000,4.000000,4.000000,4.000000,4.000000,4.000000,2.000000,2.000000,4.000000,1.000000,41.666668
1600982354.756321,24.000000,0.000000,3919.487061,4649.743652,4173.846191,4274.358887,4044.615479,4650.256348,3991.794922,3934.358887,4362.051270,4069.230713,4228.205078,4182.563965,4090.256348,4029.230713,0.000000,4.000000,,,,0.000000,4.000000,4.000000,4.000000,4.000000,4.000000,4.000000,4.000000,4.000000,4.000000,4.000000,2.000000,2.000000,4.000000,1.000000,41.666668
1600982354.764154,25.000000,0.000000,3910.256348,4644.615234,4167.692383,4271.282227,4035.897461,4643.077148,3983.076904,3920.000000,4354.871582,4058.974365,4224.615234,4177.948730,4082.564209,4024.102539,0.000000,4.000000,,,,0.000000,4.000000,4.000000,4.000000,4.000000,4.000000,4.000000,4.000000,4.000000,4.000000,4.000000,2.000000,2.000000,4.000000,1.000000,41.666668
1600982354.772086,26.000000,0.000000,3901.025635,4636.410156,4164.615234,4263.589844,4028.718018,4633.333496,3973.846191,3911.281982,4347.692383,4055.897461,4216.410156,4174.358887,4075.384521,4015.897461,0.000000,4.000000,,,,0.000000,4.000000,4.000000,4.000000,4.000000,4.000000,4.000000,4.000000,4.000000,4.000000,4.000000,2.000000,2.000000,4.000000,1.000000,41.666668
1600982354.779918,27.000000,0.000000,3902.564209,4638.974121,4166.666504,4260.000000,4035.384521,4633.846191,3975.384521,3911.281982,4344.615234,4058.974365,4213.333496,4175.384766,4076.410156,4016.923096,0.000000,4.000000,,,,0.000000,4.000000,4.000000,4.000000,4.000000,4.000000,4.000000,4.000000,4.000000,4.000000,4.000000,2.000000,2.000000,4.000000,1.000000,41.666668
1600982354.787649,28.000000,0.000000,3908.205078,4650.769043,4174.358887,4267.179688,4047.692383,4641.538574,3982.051270,3911.281982,4346.666504,4059.487061,4218.461426,4184.102539,4081.025635,4019.487061,0.000000,4.000000,,,,0.000000,4.000000,4.000000,4.000000,4.000000,4.000000,4.000000,4.000000,4.000000,4.000000,4.000000,2.000000,2.000000,4.000000,1.000000,41.666668
1600982354.795480,29.000000,0.000000,3904.102539,4650.769043,4177.436035,4268.717773,4044.615479,4642.563965,3977.948730,3913.333252,4351.794922,4056.410156,4220.000000,4185.641113,4081.538574,4020.000000,0.000000,4.000000,,,,0.000000,4.000000,4.000000,4.000000,4.000000,4.000000,4.000000,4.000000,4.000000,4.000000,4.000000,2.000000,2.000000,4.000000,1.000000,41.666668
1600982354.803210,30.000000,0.000000,3904.615479,4643.589844,4177.948730,4263.589844,4031.794922,4638.461426,3977.435791,3920.000000,4356.922852,4058.461426,4217.948730,4179.487305,4085.128174,4019.487061,0.000000,4.000000,,,,0.000000,4.000000,4.000000,4.000000,4.000000,4.000000,4.000000,4.000000,4.000000,4.000000,4.000000,2.000000,2.000000,4.000000,1.000000,41.666668
1600982354.811041,31.000000,0.000000,3910.769287,4642.051270,4183.077148,4261.538574,4025.128174,4632.307617,3985.128174,3920.000000,4356.410156,4063.076904,4219.487305,4177.948730,4086.666748,4023.076904,0.000000,4.000000,,,,0.000000,4.000000,4.000000,4.000000,4.000000,4.000000,4.000000,4.000000,4.000000,4.000000,4.000000,2.000000,2.000000,4.000000,1.000000,41.666668
1600982354.818771,32.000000,0.000000,3907.692383,4641.025879,4183.589844,4257.436035,4028.205078,4629.230957,3980.000000,3915.384521,4345.641113,4062.564209,4222.051270,4177.948730,4080.512939,4022.564209,0.000000,4.000000,,,,0.000000,4.000000,4.000000,4.000000,4.000000,4.000000,4.000000,4.000000,4.000000,4.000000,4.000000,2.000000,2.000000,4.000000,1.000000,41.666668
1600982354.826601,33.000000,0.000000,3902.051270,4637.948730,4179.487305,4257.948730,4031.794922,4629.743652,3969.230713,3910.769287,4334.871582,4060.512939,4221.025879,4177.436035,4074.358887,4020.000000,0.000000,4.000000,,,,0.000000,4.000000,4.000000,4.000000,4.000000,4.000000,4.000000,4.000000,4.000000,4.000000,4.000000,2.000000,2.000000,4.000000,1.000000,41.666668
1600982354.834330,34.000000,0.000000,3911.281982,4646.153809,4190.769043,4269.230957,4034.871826,4633.333496,3975.897461,3917.948730,4342.051270,4061.538574,4225.641113,4183.077148,4082.564209,4024.102539,0.000000,4.000000,,,,0.000000,4.000000,4.000000,4.000000,4.000000,4.000000,4.000000,4.000000,4.000000,4.000000,4.000000,2.000000,2.000000,4.000000,1.000000,41.666668
1600982354.842159,35.000000,0.000000,3921.538574,4651.794922,4203.077148,4270.256348,4037.435791,4632.820313,3984.615479,3926.153809,4352.307617,4060.000000,4230.256348,4187.692383,4090.256348,4030.256348,0.000000,4.000000,,,,0.000000,4.000000,4.000000,4.000000,4.000000,4.000000,4.000000,4.000000,4.000000,4.000000,4.000000,2.000000,2.000000,4.000000,1.000000,41.666668
1600982354.849888,36.000000,0.000000,3914.358887,4643.589844,4191.794922,4257.948730,4035.897461,4628.717773,3976.410156,3911.281982,4344.102539,4047.179443,4221.538574,4181.538574,4080.512939,4026.666748,0.000000,4.000000,,,,0.000000,4.000000,4.000000,4.000000,4.000000,4.000000,4.000000,4.000000,4.000000,4.000000,4.000000,2.000000,2.000000,4.000000,1.000000,41.666668
1600982354.857716,37.000000,0.000000,3902.564209,4632.820313,4177.436035,4251.794922,4032.307617,4626.666504,3965.641113,3892.820557,4332.307617,4036.410156,4207.179688,4169.743652,4065.128174,4020.000000,0.000000,4.000000,,,,0.000000,4.000000,4.000000,4.000000,4.000000,4.000000,4.000000,4.000000,4.000000,4.000000,4.000000,2.000000,2.000000,4.000000,1.000000,41.666668
1600982354.865444,38.000000,0.000000,3902.051270,4632.820313,4181.025879,4257.436035,4032.820557,4630.256348,3971.281982,3904.615479,4335.384766,4043.076904,4205.641113,4167.179688,4065.128174,4020.000000,0.000000,4.000000,,,,0.000000,4.000000,4.000000,4.000000,4.000000,4.000000,4.000000,4.000000,4.000000,4.000000,4.000000,2.000000,2.000000,4.000000,1.000000,41.666668
1600982354.873272,39.000000,0.000000,3910.256348,4640.512695,4190.256348,4262.563965,4038.974365,4637.948730,3983.076904,3925.128174,4345.641113,4055.384521,4218.461426,4176.410156,4079.487061,4025.128174,0.000000,4.000000,,,,0.000000,4.000000,4.000000,4.000000,4.000000,4.000000,4.000000,4.000000,4.000000,4.000000,4.000000,2.000000,2.000000,4.000000,1.000000,41.666668
1600982354.881000,40.000000,0.000000,3906.153809,4640.512695,4182.563965,4253.846191,4031.794922,4627.692383,3969.743652,3908.205078,4339.487305,4054.871826,4217.436035,4175.897461,4078.461426,4025.128174,0.000000,4.000000,,,,0.000000,4.000000,4.000000,4.000000,4.000000,4.000000,4.000000,4.000000,4.000000,4.000000,4.000000,2.000000,2.000000,4.000000,1.000000,41.666668
1600982354.888934,41.000000,0.000000,3907.692383,4640.512695,4180.512695,4253.333496,4026.666748,4615.384766,3958.461426,3893.846191,4333.333496,4058.974365,4212.307617,4172.307617,4074.871826,4022.564209,0.000000,4.000000,,,,0.000000,4.000000,4.000000,4.000000,4.000000,4.000000,4.000000,4.000000,4.000000,4.000000,4.000000,2.000000,2.000000,4.000000,1.000000,41.666668
1600982354.896768,42.000000,0.000000,3925.641113,4648.717773,4196.410156,4271.282227,4039.487061,4628.205078,3974.358887,3910.769287,4345.641113,4066.153809,4221.538574,4184.615234,4089.230713,4026.666748,0.000000,4.000000,,,,0.000000,4.000000,4.000000,4.000000,4.000000,4.000000,4.000000,4.000000,4.000000,4.000000,4.000000,2.000000,2.000000,4.000000,1.000000,41.666668
1600982354.904701,43.000000,0.000000,3933.333252,4657.948730,4204.615234,4278.461426,4048.205078,4642.563965,3986.666748,3917.948730,4353.846191,4060.000000,4228.717773,4191.282227,4098.461426,4031.794922,0.000000,4.000000,,,,0.000000,4.000000,4.000000,4.000000,4.000000,4.000000,4.000000,4.000000,4.000000,4.000000,4.000000,2.000000,2.000000,4.000000,1.000000,41.666668
1600982354.912535,44.000000,0.000000,3924.102539,4658.974121,4195.384766,4268.717773,4040.512939,4637.436035,3977.435791,3909.743652,4348.205078,4056.410156,4222.563965,4178.974121,4092.820557,4030.256348,0.000000,4.000000,,,,0.000000,4.000000,4.000000,4.000000,4.000000,4.000000,4.000000,4.000000,4.000000,4.000000,4.000000,2.000000,2.000000,4.000000,1.000000,41.666668
1600982354.920468,45.000000,0.000000,3920.000000,4656.922852,4191.282227,4266.153809,4032.820557,4630.769043,3973.846191,3917.948730,4352.307617,4067.692383,4221.025879,4174.358887,4090.769287,4026.153809,0.000000,4.000000,,,,0.000000,4.000000,4.000000,4.000000,4.000000,4.000000,4.000000,4.000000,4.000000,4.000000,4.000000,2.000000,2.000000,4.000000,1.000000,41.666668
1600982354.928301,46.000000,0.000000,3914.358887,4649.743652,4190.769043,4263.077148,4031.794922,4626.666504,3973.846191,3922.564209,4352.307617,4059.487061,4216.922852,4178.461426,4083.589844,4025.128174,0.000000,4.000000,,,,0.000000,4.000000,4.000000,4.000000,4.000000,4.000000,4.000000,4.000000,4.000000,4.000000,4.000000,2.000000,2.000000,4.000000,1.000000,41.666668
1600982354.936233,47.000000,0.000000,3909.743652,4647.179688,4188.717773,4256.922852,4033.846191,4627.179688,3968.718018,3907.179443,4341.538574,4043.589844,4206.666504,4175.384766,4075.897461,4023.589844,0.000000,4.000000,,,,0.000000,4.000000,4.000000,4.000000,4.000000,4.000000,4.000000,4.000000,4.000000,4.000000,4.000000,2.000000,2.000000,4.000000,1.000000,41.666668
1600982354.944065,48.000000,0.000000,3917.435791,4649.230957,4191.282227,4262.051270,4034.358887,4632.820313,3969.743652,3906.666748,4343.077148,4053.333252,4205.641113,4176.410156,4073.333252,4024.615479,0.000000,4.000000,,,,0.000000,4.000000,4.000000,4.000000,4.000000,4.000000,4.000000,4.000000,4.000000,4.000000,4.000000,2.000000,2.000000,4.000000,1.000000,41.666668
1600982354.951997,49.000000,0.000000,3917.435791,4638.461426,4192.307617,4265.641113,4032.307617,4632.307617,3976.410156,3921.538574,4352.820313,4064.615479,4206.153809,4183.589844,4065.128174,4024.102539,0.000000,4.000000,,,,0.000000,4.000000,4.000000,4.000000,4.000000,4.000000,4.000000,4.000000,4.000000,4.000000,4.000000,2.000000,2.000000,4.000000,1.000000,41.666668
1600982354.959828,50.000000,0.000000,3911.281982,4627.179688,4189.743652,4261.025879,4032.307617,4631.794922,3980.000000,3926.153809,4356.410156,4061.025635,4209.230957,4190.769043,4074.358887,4024.102539,0.000000,4.000000,,,,0.000000,4.000000,4.000000,4.000000,4.000000,4.000000,4.000000,4.000000,4.000000,4.000000,4.000000,2.000000,2.000000,4.000000,1.000000,41.666668
1600982354.967559,51.000000,0.000000,3920.000000,4632.820313,4190.256348,4258.974121,4038.461426,4637.948730,3984.615479,3922.051270,4358.974121,4067.179443,4225.128418,4194.358887,4109.743652,4031.794922,0.000000,4.000000,,,,0.000000,4.000000,4.000000,4.000000,4.000000,4.000000,4.000000,4.000000,4.000000,4.000000,4.000000,2.000000,2.000000,4.000000,1.000000,41.666668
1600982354.975390,52.000000,0.000000,3927.179443,4629.743652,4189.230957,4256.410156,4041.538574,4637.948730,3982.051270,3916.923096,4357.436035,4075.897461,4236.922852,4193.333496,4132.820313,4040.000000,0.000000,4.000000,,,,0.000000,4.000000,4.000000,4.000000,4.000000,4.000000,4.000000,4.000000,4.000000,4.000000,4.000000,2.000000,2.000000,4.000000,1.000000,41.666668
1600982354.983121,53.000000,0.000000,3929.230713,4613.846191,4192.307617,4254.358887,4042.564209,4642.563965,3981.025635,3922.051270,4360.512695,4083.589844,4241.025879,4194.871582,4151.282227,4041.538574,0.000000,4.000000,,,,0.000000,4.000000,4.000000,4.000000,4.000000,4.000000,4.000000,4.000000,4.000000,4.000000,4.000000,2.000000,2.000000,4.000000,1.000000,41.666668
1600982354.991058,54.000000,0.000000,3936.923096,4609.743652,4200.000000,4256.410156,4041.025635,4650.769043,3992.307617,3936.410156,4377.948730,4100.512695,4253.846191,4195.897461,4181.538574,4044.102539,0.000000,4.000000,,,,0.000000,4.000000,4.000000,4.000000,4.000000,4.000000,4.000000,4.000000,4.000000,4.000000,4.000000,2.000000,2.000000,4.000000,1.000000,41.666668
1600982354.998895,55.000000,0.000000,3936.410156,4604.102539,4195.384766,4252.307617,4038.461426,4644.615234,3997.435791,3942.051270,4386.666504,4109.230957,4264.615234,4195.897461,4196.410156,4048.205078,0.000000,4.000000,,,,0.000000,4.000000,4.000000,4.000000,4.000000,4.000000,4.000000,4.000000,4.000000,4.000000,4.000000,2.000000,2.000000,4.000000,1.000000,41.666668
1600982355.006733,56.000000,0.000000,3928.718018,4588.205078,4187.179688,4242.051270,4039.487061,4641.538574,3991.794922,3942.051270,4382.563965,4106.666504,4268.205078,4203.589844,4202.563965,4049.743652,0.000000,4.000000,,,,0.000000,4.000000,4.000000,4.000000,4.000000,4.000000,4.000000,4.000000,4.000000,4.000000,4.000000,2.000000,2.000000,4.000000,1.000000,41.666668
1600982355.014462,57.000000,0.000000,3930.256348,4581.538574,4186.666504,4240.512695,4038.974365,4652.307617,3993.846191,3946.153809,4386.666504,4112.307617,4275.384766,4210.769043,4219.487305,4051.794922,0.000000,4.000000,,,,0.000000,4.000000,4.000000,4.000000,4.000000,4.000000,4.000000,4.000000,4.000000,4.000000,4.000000,2.000000,2.000000,4.000000,1.000000,41.666668
1600982355.022291,58.000000,0.000000,3939.487061,4586.153809,4189.743652,4247.692383,4042.051270,4657.948730,4001.538574,3954.358887,4400.000000,4124.615234,4283.077148,4212.307617,4234.871582,4054.871826,0.000000,4.000000,,,,0.000000,4.000000,4.000000,4.000000,4.000000,4.000000,4.000000,4.000000,4.000000,4.000000,4.000000,2.000000,2.000000,4.000000,1.000000,41.666668
1600982355.030020,59.000000,0.000000,3935.897461,4576.922852,4189.230957,4243.077148,4043.589844,4651.794922,3996.923096,3947.179443,4390.256348,4116.410156,4275.384766,4211.282227,4226.153809,4051.794922,0.000000,4.000000,,,,0.000000,4.000000,4.000000,4.000000,4.000000,4.000000,4.000000,4.000000,4.000000,4.000000,4.000000,2.000000,2.000000,4.000000,1.000000,41.666668
1600982355.037848,60.000000,0.000000,3923.589844,4565.128418,4184.102539,4232.820313,4040.000000,4648.717773,3985.641113,3929.743652,4375.897461,4097.948730,4260.000000,4199.487305,4205.128418,4042.564209,0.000000,4.000000,,,,0.000000,4.000000,4.000000,4.000000,4.000000,4.000000,4.000000,4.000000,4.000000,4.000000,4.000000,2.000000,2.000000,4.000000,1.000000,41.666668
1600982355.045576,61.000000,0.000000,3921.538574,4570.256348,4180.512695,4235.897461,4037.435791,4645.641113,3983.076904,3929.230713,4379.487305,4111.282227,4261.025879,4196.410156,4206.666504,4044.615479,0.000000,4.000000,,,,0.000000,4.000000,4.000000,4.000000,4.000000,4.000000,4.000000,4.000000,4.000000,4.000000,4.000000,2.000000,2.000000,4.000000,1.000000,41.666668
1600982355.053404,62.000000,0.000000,3933.846191,4582.563965,4189.230957,4248.205078,4042.051270,4643.077148,3995.384521,3950.256348,4389.230957,4140.512695,4280.000000,4213.333496,4230.256348,4054.358887,0.000000,4.000000,,,,0.000000,4.000000,4.000000,4.000000,4.000000,4.000000,4.000000,4.000000,4.000000,4.000000,4.000000,2.000000,2.000000,4.000000,1.000000,41.666668
1600982355.061132,63.000000,0.000000,3938.461426,4583.077148,4194.358887,4248.205078,4041.538574,4647.179688,4009.230713,3959.487061,4396.922852,4135.897461,4283.589844,4218.461426,4231.282227,4053.846191,0.000000,4.000000,,,,0.000000,4.000000,4.000000,4.000000,4.000000,4.000000,4.000000,4.000000,4.000000,4.000000,4.000000,2.000000,2.000000,4.000000,1.000000,41.666668
1600982355.068959,64.000000,0.000000,3929.230713,4576.410156,4187.179688,4240.512695,4041.025635,4654.871582,4008.205078,3945.128174,4399.487305,4114.358887,4270.769043,4204.615234,4210.769043,4045.641113,416.000000,4.000000,,,,0.000000,4.000000,4.000000,4.000000,4.000000,4.000000,4.000000,4.000000,4.000000,4.000000,4.000000,2.000000,2.000000,4.000000,1.000000,41.666668
1600982355.076686,65.000000,0.000000,3923.076904,4571.794922,4183.077148,4238.974121,4041.025635,4651.282227,3997.435791,3934.871826,4390.769043,4113.333496,4267.179688,4201.538574,4203.589844,4045.641113,438.000000,4.000000,,,,0.000000,4.000000,4.000000,4.000000,4.000000,4.000000,4.000000,4.000000,4.000000,4.000000,4.000000,2.000000,2.000000,4.000000,1.000000,41.666668
1600982355.084618,66.000000,0.000000,3927.179443,4573.846191,4185.128418,4241.538574,4035.384521,4645.641113,3997.948730,3941.025635,4381.538574,4118.461426,4271.794922,4208.717773,4205.641113,4047.179443,453.000000,4.000000,,,,0.000000,4.000000,4.000000,4.000000,4.000000,4.000000,4.000000,4.000000,4.000000,4.000000,4.000000,2.000000,2.000000,4.000000,1.000000,41.666668
1600982355.092451,67.000000,0.000000,3917.948730,4569.230957,4174.358887,4232.307617,4032.820557,4650.769043,3998.461426,3935.897461,4375.897461,4102.563965,4258.974121,4200.512695,4189.743652,4041.538574,459.000000,4.000000,,,,0.000000,4.000000,4.000000,4.000000,4.000000,4.000000,4.000000,4.000000,4.000000,4.000000,4.000000,2.000000,2.000000,4.000000,1.000000,41.666668
1600982355.100383,68.000000,0.000000,3900.000000,4555.384766,4162.051270,4221.025879,4038.461426,4652.307617,3989.230713,3927.692383,4366.666504,4088.718018,4243.077148,4187.692383,4172.307617,4033.333252,472.000000,4.000000,,,,0.000000,4.000000,4.000000,4.000000,4.000000,4.000000,4.000000,4.000000,4.000000,4.000000,4.000000,2.000000,2.000000,4.000000,1.000000,41.666668
1600982355.108215,69.000000,0.000000,3909.230713,4560.512695,4173.333496,4232.307617,4038.974365,4648.205078,3995.384521,3940.000000,4369.230957,4102.563965,4252.820313,4193.333496,4180.512695,4037.435791,445.000000,4.000000,,,,0.000000,4.000000,4.000000,4.000000,4.000000,4.000000,4.000000,4.000000,4.000000,4.000000,4.000000,2.000000,2.000000,4.000000,1.000000,41.666668
1600982355.116146,70.000000,0.000000,3931.794922,4582.051270,4189.230957,4251.282227,4033.333252,4647.179688,4010.769287,3952.307617,4385.641113,4118.461426,4267.692383,4202.563965,4197.436035,4047.692383,441.000000,4.000000,,,,0.000000,4.000000,4.000000,4.000000,4.000000,4.000000,4.000000,4.000000,4.000000,4.000000,4.000000,2.000000,2.000000,4.000000,1.000000,41.666668
1600982355.123978,71.000000,0.000000,3931.281982,4584.102539,4188.717773,4249.230957,4036.923096,4650.256348,4011.281982,3946.666748,4389.743652,4113.846191,4269.743652,4197.948730,4200.512695,4049.743652,393.000000,4.000000,,,,0.000000,4.000000,4.000000,4.000000,4.000000,4.000000,4.000000,4.000000,4.000000,4.000000,4.000000,2.000000,2.000000,4.000000,1.000000,41.666668
1600982355.131709,72.000000,0.000000,3913.333252,4566.666504,4181.025879,4238.974121,4041.025635,4653.846191,4007.692383,3945.128174,4387.179688,4110.256348,4268.205078,4194.358887,4196.410156,4045.128174,397.000000,4.000000,,,,0.000000,4.000000,4.000000,4.000000,4.000000,4.000000,4.000000,4.000000,4.000000,4.000000,4.000000,2.000000,2.000000,4.000000,1.000000,41.666668
1600982355.139540,73.000000,0.000000,3914.871826,4569.743652,4182.563965,4246.153809,4039.487061,4656.922852,4007.692383,3950.256348,4389.230957,4117.948730,4269.230957,4198.974121,4193.846191,4044.615479,402.000000,4.000000,,,,0.000000,4.000000,4.000000,4.000000,4.000000,4.000000,4.000000,4.000000,4.000000,4.000000,4.000000,2.000000,2.000000,4.000000,1.000000,41.666668
1600982355.147270,74.000000,0.000000,3929.743652,4591.282227,4188.717773,4256.922852,4045.641113,4654.358887,3997.435791,3938.974365,4383.077148,4111.794922,4264.615234,4200.000000,4187.692383,4046.153809,435.000000,4.000000,,,,0.000000,4.000000,4.000000,4.000000,4.000000,4.000000,4.000000,4.000000,4.000000,4.000000,4.000000,2.000000,2.000000,4.000000,1.000000,41.666668
1600982355.155100,75.000000,0.000000,3938.461426,4606.666504,4192.307617,4263.077148,4054.871826,4655.897461,3992.307617,3929.743652,4374.871582,4100.000000,4265.128418,4200.000000,4189.743652,4046.153809,125.000000,4.000000,,,,0.000000,4.000000,4.000000,4.000000,4.000000,4.000000,4.000000,4.000000,4.000000,4.000000,4.000000,2.000000,2.000000,4.000000,1.000000,41.666668
1600982355.162830,76.000000,0.000000,3934.871826,4606.153809,4187.692383,4261.025879,4046.153809,4658.974121,3994.358887,3930.256348,4373.333496,4098.974121,4262.563965,4198.974121,4189.230957,4047.179443,318.000000,4.000000,,,,0.000000,4.000000,4.000000,4.000000,4.000000,4.000000,4.000000,4.000000,4.000000,4.000000,4.000000,2.000000,2.000000,4.000000,1.000000,41.666668
1600982355.170659,77.000000,0.000000,3926.153809,4596.922852,4178.461426,4252.307617,4033.846191,4644.102539,3990.769287,3928.205078,4373.333496,4104.102539,4252.307617,4193.333496,4175.897461,4042.051270,300.000000,4.000000,,,,0.000000,4.000000,4.000000,4.000000,4.000000,4.000000,4.000000,4.000000,4.000000,4.000000,4.000000,2.000000,2.000000,4.000000,1.000000,41.666668
1600982355.178388,78.000000,0.000000,3920.000000,4590.256348,4174.358887,4246.153809,4033.846191,4632.307617,3992.820557,3928.718018,4368.205078,4111.282227,4249.743652,4195.384766,4167.692383,4035.897461,435.000000,4.000000,,,,0.000000,4.000000,4.000000,4.000000,4.000000,4.000000,4.000000,4.000000,4.000000,4.000000,4.000000,2.000000,2.000000,4.000000,1.000000,41.666668
1600982355.186217,79.000000,0.000000,3922.564209,4594.871582,4180.000000,4254.871582,4041.025635,4649.230957,4002.564209,3935.897461,4366.666504,4116.922852,4254.358887,4203.589844,4176.922852,4040.000000,125.000000,4.000000,,,,0.000000,4.000000,4.000000,4.000000,4.000000,4.000000,4.000000,4.000000,4.000000,4.000000,4.000000,2.000000,2.000000,4.000000,1.000000,41.666668
1600982355.193946,80.000000,0.000000,3929.230713,4596.922852,4184.102539,4260.512695,4040.000000,4651.282227,3996.923096,3929.743652,4369.743652,4107.179688,4256.410156,4205.128418,4180.000000,4047.692383,318.000000,4.000000,,,,0.000000,4.000000,4.000000,4.000000,4.000000,4.000000,4.000000,4.000000,4.000000,4.000000,4.000000,2.000000,2.000000,4.000000,1.000000,41.666668
1600982355.201774,81.000000,0.000000,3927.692383,4591.794922,4181.538574,4253.333496,4033.333252,4633.333496,3986.153809,3920.512939,4374.871582,4095.897461,4257.436035,4206.153809,4174.871582,4046.666748,300.000000,4.000000,,,,0.000000,4.000000,4.000000,4.000000,4.000000,4.000000,4.000000,4.000000,4.000000,4.000000,4.000000,2.000000,2.000000,4.000000,1.000000,41.666668
1600982355.209502,82.000000,0.000000,3922.564209,4592.307617,4177.436035,4251.282227,4035.897461,4641.025879,3989.743652,3930.769287,4382.051270,4103.077148,4258.461426,4207.179688,4176.410156,4046.153809,435.000000,4.000000,,,,0.000000,4.000000,4.000000,4.000000,4.000000,4.000000,4.000000,4.000000,4.000000,4.000000,4.000000,2.000000,2.000000,4.000000,1.000000,41.666668
1600982355.217330,83.000000,0.000000,3918.461426,4590.769043,4172.307617,4248.717773,4044.615479,4656.410156,3992.820557,3934.358887,4375.384766,4106.153809,4252.307617,4198.461426,4170.256348,4044.615479,125.000000,4.000000,,,,0.000000,4.000000,4.000000,4.000000,4.000000,4.000000,4.000000,4.000000,4.000000,4.000000,4.000000,2.000000,2.000000,4.000000,1.000000,41.666668
1600982355.225057,84.000000,0.000000,3917.435791,4586.153809,4171.282227,4242.563965,4044.615479,4649.230957,3991.794922,3921.025635,4365.128418,4093.846191,4250.256348,4191.282227,4162.051270,4042.051270,318.000000,4.000000,,,,0.000000,4.000000,4.000000,4.000000,4.000000,4.000000,4.000000,4.000000,4.000000,4.000000,4.000000,2.000000,2.000000,4.000000,1.000000,41.666668
1600982355.232991,85.000000,0.000000,3931.794922,4598.461426,4186.666504,4252.307617,4044.615479,4646.153809,3998.461426,3928.718018,4382.051270,4105.128418,4263.077148,4203.589844,4175.897461,4049.230713,300.000000,4.000000,,,,0.000000,4.000000,4.000000,4.000000,4.000000,4.000000,4.000000,4.000000,4.000000,4.000000,4.000000,2.000000,2.000000,4.000000,1.000000,41.666668
1600982355.240825,86.000000,0.000000,3943.076904,4608.205078,4198.461426,4263.589844,4049.743652,4654.358887,4001.025635,3945.641113,4394.871582,4125.641113,4273.333496,4214.358887,4186.153809,4054.358887,435.000000,4.000000,,,,0.000000,4.000000,4.000000,4.000000,4.000000,4.000000,4.000000,4.000000,4.000000,4.000000,4.000000,2.000000,2.000000,4.000000,1.000000,41.666668
1600982355.248758,87.000000,0.000000,3928.205078,4592.820313,4182.051270,4248.205078,4040.000000,4646.153809,3993.846191,3928.205078,4370.256348,4106.666504,4260.000000,4201.025879,4166.666504,4044.102539,125.000000,4.000000,,,,0.000000,4.000000,4.000000,4.000000,4.000000,4.000000,4.000000,4.000000,4.000000,4.000000,4.000000,2.000000,2.000000,4.000000,1.000000,41.666668
1600982355.256591,88.000000,0.000000,3912.307617,4583.077148,4166.666504,4234.871582,4029.743652,4633.846191,3991.281982,3909.230713,4352.307617,4088.205078,4242.563965,4188.717773,4151.282227,4036.923096,318.000000,4.000000,,,,0.000000,4.000000,4.000000,4.000000,4.000000,4.000000,4.000000,4.000000,4.000000,4.000000,4.000000,2.000000,2.000000,4.000000,1.000000,41.666668
1600982355.264524,89.000000,0.000000,3925.128174,4592.820313,4180.000000,4251.794922,4036.923096,4638.461426,3994.871826,3926.153809,4363.077148,4110.256348,4248.717773,4196.922852,4164.615234,4043.076904,300.000000,4.000000,,,,0.000000,4.000000,4.000000,4.000000,4.000000,4.000000,4.000000,4.000000,4.000000,4.000000,4.000000,2.000000,2.000000,4.000000,1.000000,41.666668
1600982355.272356,90.000000,0.000000,3940.512939,4597.948730,4191.794922,4261.538574,4037.435791,4650.256348,3996.410156,3943.589844,4377.948730,4123.077148,4264.615234,4203.077148,4176.410156,4046.666748,435.000000,4.000000,,,,0.000000,4.000000,4.000000,4.000000,4.000000,4.000000,4.000000,4.000000,4.000000,4.000000,4.000000,2.000000,2.000000,4.000000,1.000000,41.666668
1600982355.280288,91.000000,0.000000,3922.564209,4580.000000,4172.307617,4244.615234,4027.692383,4643.077148,3992.307617,3930.769287,4377.436035,4095.897461,4254.871582,4190.769043,4155.384766,4040.000000,125.000000,4.000000,,,,0.000000,4.000000,4.000000,4.000000,4.000000,4.000000,4.000000,4.000000,4.000000,4.000000,4.000000,2.000000,2.000000,4.000000,1.000000,41.666668
1600982355.288120,92.000000,0.000000,3908.205078,4577.436035,4160.512695,4243.077148,4033.846191,4633.333496,3993.333252,3925.128174,4374.871582,4087.692383,4243.077148,4185.641113,4142.051270,4033.333252,318.000000,4.000000,,,,0.000000,4.000000,4.000000,4.000000,4.000000,4.000000,4.000000,4.000000,4.000000,4.000000,4.000000,2.000000,2.000000,4.000000,1.000000,41.666668
1600982355.296051,93.000000,0.000000,3918.974365,4598.974121,4169.743652,4256.922852,4038.974365,4640.000000,3997.435791,3937.948730,4372.307617,4104.615234,4251.282227,4193.333496,4156.410156,4033.846191,300.000000,4.000000,,,,0.000000,4.000000,4.000000,4.000000,4.000000,4.000000,4.000000,4.000000,4.000000,4.000000,4.000000,2.000000,2.000000,4.000000,1.000000,41.666668
1600982355.303883,94.000000,0.000000,3924.102539,4607.179688,4172.820313,4258.461426,4031.794922,4645.128418,3990.256348,3931.281982,4364.102539,4098.461426,4253.333496,4188.717773,4162.051270,4033.846191,435.000000,4.000000,,,,0.000000,4.000000,4.000000,4.000000,4.000000,4.000000,4.000000,4.000000,4.000000,4.000000,4.000000,2.000000,2.000000,4.000000,1.000000,41.666668
1600982355.311614,95.000000,0.000000,3910.256348,4595.897461,4162.563965,4250.256348,4031.281982,4637.436035,3978.461426,3905.128174,4350.769043,4073.333252,4237.436035,4176.410156,4142.563965,4028.718018,125.000000,4.000000,,,,0.000000,4.000000,4.000000,4.000000,4.000000,4.000000,4.000000,4.000000,4.000000,4.000000,4.000000,2.000000,2.000000,4.000000,1.000000,41.666668
1600982355.319444,96.000000,0.000000,3897.435791,4591.794922,4155.897461,4245.641113,4031.794922,4637.948730,3978.974365,3898.461426,4346.666504,4068.718018,4229.230957,4175.384766,4129.743652,4020.512939,318.000000,4.000000,,,,0.000000,4.000000,4.000000,4.000000,4.000000,4.000000,4.000000,4.000000,4.000000,4.000000,4.000000,2.000000,2.000000,4.000000,1.000000,41.666668
1600982355.327175,97.000000,0.000000,3890.256348,4590.256348,4153.846191,4241.025879,4021.538574,4634.871582,3978.974365,3910.256348,4349.230957,4084.615479,4234.871582,4178.974121,4130.769043,4016.410156,300.000000,4.000000,,,,0.000000,4.000000,4.000000,4.000000,4.000000,4.000000,4.000000,4.000000,4.000000,4.000000,4.000000,2.000000,2.000000,4.000000,1.000000,41.666668
1600982355.335005,98.000000,0.000000,3893.333252,4593.333496,4158.974121,4245.128418,4026.153809,4627.179688,3980.000000,3919.487061,4350.256348,4095.897461,4244.615234,4185.128418,4140.512695,4019.487061,435.000000,4.000000,,,,0.000000,4.000000,4.000000,4.000000,4.000000,4.000000,4.000000,4.000000,4.000000,4.000000,4.000000,2.000000,2.000000,4.000000,1.000000,41.666668
1600982355.342734,99.000000,0.000000,3900.000000,4598.974121,4165.641113,4248.205078,4035.384521,4631.282227,3989.230713,3918.461426,4351.794922,4085.641113,4245.641113,4188.717773,4147.179688,4019.487061,125.000000,4.000000,,,,0.000000,4.000000,4.000000,4.000000,4.000000,4.000000,4.000000,4.000000,4.000000,4.000000,4.000000,2.000000,2.000000,4.000000,1.000000,41.666668
1600982355.350564,100.000000,0.000000,3893.333252,4591.794922,4161.538574,4242.051270,4028.718018,4634.358887,3989.743652,3915.897461,4354.871582,4064.615479,4236.922852,4180.512695,4138.974121,4012.820557,318.000000,4.000000,,,,0.000000,4.000000,4.000000,4.000000,4.000000,4.000000,4.000000,4.000000,4.000000,4.000000,4.000000,2.000000,2.000000,4.000000,1.000000,41.666668
1600982355.358293,101.000000,0.000000,3891.281982,4594.871582,4163.077148,4247.179688,4027.692383,4635.897461,3987.179443,3921.025635,4360.000000,4068.718018,4238.974121,4176.410156,4137.948730,4012.820557,300.000000,4.000000,,,,0.000000,4.000000,4.000000,4.000000,4.000000,4.000000,4.000000,4.000000,4.000000,4.000000,4.000000,2.000000,2.000000,4.000000,1.000000,41.666668
1600982355.366122,102.000000,0.000000,3900.000000,4607.179688,4172.820313,4256.922852,4034.358887,4643.589844,3989.743652,3928.205078,4353.846191,4090.769287,4247.692383,4183.077148,4147.692383,4017.435791,435.000000,4.000000,,,,0.000000,4.000000,4.000000,4.000000,4.000000,4.000000,4.000000,4.000000,4.000000,4.000000,4.000000,2.000000,2.000000,4.000000,1.000000,41.666668
1600982355.373850,103.000000,0.000000,3896.410156,4603.077148,4172.307617,4250.256348,4035.897461,4641.025879,3989.743652,3923.076904,4345.128418,4089.230713,4242.051270,4182.563965,4141.538574,4015.384521,125.000000,4.000000,,,,0.000000,4.000000,4.000000,4.000000,4.000000,4.000000,4.000000,4.000000,4.000000,4.000000,4.000000,2.000000,2.000000,4.000000,1.000000,41.666668
1600982355.381678,104.000000,0.000000,3889.230713,4601.025879,4166.666504,4242.051270,4036.923096,4630.256348,3987.692383,3917.435791,4358.461426,4072.820557,4237.436035,4179.487305,4132.307617,4010.769287,318.000000,4.000000,,,,0.000000,4.000000,4.000000,4.000000,4.000000,4.000000,4.000000,4.000000,4.000000,4.000000,4.000000,2.000000,2.000000,4.000000,1.000000,41.666668
1600982355.389406,105.000000,0.000000,3893.333252,4616.410156,4165.641113,4250.256348,4035.384521,4639.487305,3993.846191,3923.076904,4366.666504,4083.076904,4246.153809,4182.051270,4137.436035,4012.307617,300.000000,4.000000,,,,0.000000,4.000000,4.000000,4.000000,4.000000,4.000000,4.000000,4.000000,4.000000,4.000000,4.000000,2.000000,2.000000,4.000000,1.000000,41.666668
1600982355.397340,106.000000,0.000000,3885.128174,4610.769043,4155.897461,4250.769043,4029.743652,4643.077148,3990.256348,3912.820557,4339.487305,4087.179443,4236.922852,4178.461426,4127.692383,4008.718018,435.000000,4.000000,,,,0.000000,4.000000,4.000000,4.000000,4.000000,4.000000,4.000000,4.000000,4.000000,4.000000,4.000000,2.000000,2.000000,4.000000,1.000000,41.666668
1600982355.405175,107.000000,0.000000,3880.000000,4598.461426,4151.282227,4249.743652,4039.487061,4630.769043,3988.205078,3901.538574,4336.922852,4072.307617,4227.692383,4179.487305,4120.512695,4007.179443,125.000000,4.000000,,,,0.000000,4.000000,4.000000,4.000000,4.000000,4.000000,4.000000,4.000000,4.000000,4.000000,4.000000,2.000000,2.000000,4.000000,1.000000,41.666668
1600982355.413108,108.000000,0.000000,3900.512939,4616.922852,4165.641113,4262.563965,4050.769287,4635.897461,4001.025635,3916.923096,4369.230957,4086.153809,4249.230957,4194.871582,4144.102539,4016.923096,318.000000,4.000000,,,,0.000000,4.000000,4.000000,4.000000,4.000000,4.000000,4.000000,4.000000,4.000000,4.000000,4.000000,2.000000,2.000000,4.000000,1.000000,41.666668
1600982355.420942,109.000000,0.000000,3907.179443,4628.205078,4167.179688,4267.179688,4037.435791,4645.128418,3998.461426,3929.743652,4365.641113,4103.077148,4261.025879,4193.846191,4153.846191,4019.487061,300.000000,4.000000,,,,0.000000,4.000000,4.000000,4.000000,4.000000,4.000000,4.000000,4.000000,4.000000,4.000000,4.000000,2.000000,2.000000,4.000000,1.000000,41.666668
1600982355.428875,110.000000,0.000000,3884.102539,4603.589844,4150.256348,4249.230957,4022.564209,4635.897461,3981.025635,3918.974365,4344.615234,4078.461426,4238.974121,4176.410156,4126.666504,4011.281982,435.000000,4.000000,,,,0.000000,4.000000,4.000000,4.000000,4.000000,4.000000,4.000000,4.000000,4.000000,4.000000,4.000000,2.000000,2.000000,4.000000,1.000000,41.666668
1600982355.436708,111.000000,0.000000,3876.923096,4590.256348,4148.717773,4238.974121,4029.743652,4634.358887,3983.076904,3910.769287,4348.717773,4063.076904,4226.666504,4170.769043,4113.333496,4005.641113,125.000000,4.000000,,,,0.000000,4.000000,4.000000,4.000000,4.000000,4.000000,4.000000,4.000000,4.000000,4.000000,4.000000,2.000000,2.000000,4.000000,1.000000,41.666668
1600982355.444640,112.000000,0.000000,3883.589844,4601.025879,4151.282227,4244.102539,4029.743652,4636.922852,3989.743652,3910.256348,4351.794922,4070.256348,4233.846191,4172.307617,4118.461426,4005.641113,318.000000,4.000000,,,,0.000000,4.000000,4.000000,4.000000,4.000000,4.000000,4.000000,4.000000,4.000000,4.000000,4.000000,2.000000,2.000000,4.000000,1.000000,41.666668
1600982355.452472,113.000000,0.000000,3883.589844,4609.230957,4149.743652,4250.256348,4025.641113,4636.922852,3990.256348,3914.871826,4349.230957,4073.333252,4240.512695,4172.307617,4123.077148,4005.641113,300.000000,4.000000,,,,0.000000,4.000000,4.000000,4.000000,4.000000,4.000000,4.000000,4.000000,4.000000,4.000000,4.000000,2.000000,2.000000,4.000000,1.000000,41.666668
1600982355.460404,114.000000,0.000000,3886.153809,4611.282227,4156.922852,4253.333496,4042.051270,4646.153809,3994.358887,3924.102539,4352.820313,4082.051270,4245.641113,4175.897461,4132.307617,4007.692383,435.000000,4.000000,,,,0.000000,4.000000,4.000000,4.000000,4.000000,4.000000,4.000000,4.000000,4.000000,4.000000,4.000000,2.000000,2.000000,4.000000,1.000000,41.666668
1600982355.468236,115.000000,0.000000,3895.897461,4615.384766,4164.615234,4257.948730,4051.281982,4650.769043,3996.923096,3926.666748,4356.410156,4092.820557,4250.256348,4181.538574,4142.051270,4008.718018,125.000000,4.000000,,,,0.000000,4.000000,4.000000,4.000000,4.000000,4.000000,4.000000,4.000000,4.000000,4.000000,4.000000,2.000000,2.000000,4.000000,1.000000,41.666668
1600982355.476167,116.000000,0.000000,3903.076904,4616.922852,4164.615234,4258.974121,4031.281982,4638.974121,3992.820557,3922.051270,4357.948730,4094.871826,4250.256348,4185.128418,4143.077148,4010.256348,318.000000,4.000000,,,,0.000000,4.000000,4.000000,4.000000,4.000000,4.000000,4.000000,4.000000,4.000000,4.000000,4.000000,2.000000,2.000000,4.000000,1.000000,41.666668
1600982355.483998,117.000000,0.000000,3905.641113,4619.487305,4164.102539,4255.384766,4024.615479,4638.461426,3995.897461,3925.128174,4360.512695,4098.974121,4251.282227,4191.282227,4143.077148,4013.333252,300.000000,4.000000,,,,0.000000,4.000000,4.000000,4.000000,4.000000,4.000000,4.000000,4.000000,4.000000,4.000000,4.000000,2.000000,2.000000,4.000000,1.000000,41.666668
1600982355.491729,118.000000,0.000000,3900.512939,4618.461426,4156.922852,4250.769043,4036.410156,4642.563965,3989.743652,3921.538574,4351.794922,4092.307617,4248.205078,4190.256348,4137.948730,4011.281982,435.000000,4.000000,,,,0.000000,4.000000,4.000000,4.000000,4.000000,4.000000,4.000000,4.000000,4.000000,4.000000,4.000000,2.000000,2.000000,4.000000,1.000000,41.666668
1600982355.499666,119.000000,0.000000,3896.410156,4612.307617,4146.666504,4248.717773,4030.256348,4632.307617,3977.948730,3913.333252,4346.666504,4076.923096,4240.512695,4184.615234,4126.666504,4007.179443,125.000000,4.000000,,,,0.000000,4.000000,4.000000,4.000000,4.000000,4.000000,4.000000,4.000000,4.000000,4.000000,4.000000,2.000000,2.000000,4.000000,1.000000,41.666668
1600982355.507503,120.000000,0.000000,3908.718018,4622.051270,4151.282227,4255.384766,4024.102539,4632.820313,3987.179443,3921.538574,4358.974121,4082.051270,4245.641113,4189.230957,4130.256348,4009.743652,318.000000,4.000000,,,,0.000000,4.000000,4.000000,4.000000,4.000000,4.000000,4.000000,4.000000,4.000000,4.000000,4.000000,2.000000,2.000000,4.000000,1.000000,41.666668
1600982355.515340,121.000000,0.000000,3923.076904,4633.333496,4164.102539,4265.128418,4040.512939,4644.615234,3996.410156,3925.641113,4362.563965,4094.358887,4254.358887,4199.487305,4142.563965,4014.358887,300.000000,4.000000,,,,0.000000,4.000000,4.000000,4.000000,4.000000,4.000000,4.000000,4.000000,4.000000,4.000000,4.000000,2.000000,2.000000,4.000000,1.000000,41.666668
1600982355.523070,122.000000,0.000000,3925.128174,4627.179688,4166.153809,4264.102539,4049.743652,4649.743652,3989.230713,3914.358887,4352.820313,4094.358887,4249.743652,4200.000000,4138.974121,4014.358887,435.000000,4.000000,,,,0.000000,4.000000,4.000000,4.000000,4.000000,4.000000,4.000000,4.000000,4.000000,4.000000,4.000000,2.000000,2.000000,4.000000,1.000000,41.666668
1600982355.530899,123.000000,0.000000,3923.076904,4620.512695,4161.025879,4255.897461,4037.948730,4647.692383,3985.641113,3912.820557,4351.794922,4092.820557,4248.205078,4195.897461,4136.410156,4013.333252,125.000000,4.000000,,,,0.000000,4.000000,4.000000,4.000000,4.000000,4.000000,4.000000,4.000000,4.000000,4.000000,4.000000,2.000000,2.000000,4.000000,1.000000,41.666668
1600982355.538628,124.000000,0.000000,3924.615479,4617.948730,4163.077148,4256.922852,4030.769287,4653.333496,3997.948730,3929.743652,4370.769043,4102.563965,4263.077148,4201.025879,4149.743652,4014.358887,318.000000,4.000000,,,,0.000000,4.000000,4.000000,4.000000,4.000000,4.000000,4.000000,4.000000,4.000000,4.000000,4.000000,2.000000,2.000000,4.000000,1.000000,41.666668
1600982355.546457,125.000000,0.000000,3913.846191,4604.102539,4158.461426,4252.820313,4033.333252,4652.307617,4003.076904,3928.718018,4370.256348,4102.051270,4258.974121,4199.487305,4138.974121,4011.281982,300.000000,4.000000,,,,0.000000,4.000000,4.000000,4.000000,4.000000,4.000000,4.000000,4.000000,4.000000,4.000000,4.000000,2.000000,2.000000,4.000000,1.000000,41.666668
1600982355.554185,126.000000,0.000000,3908.205078,4609.230957,4147.179688,4251.794922,4037.948730,4637.948730,3993.846191,3908.205078,4344.102539,4085.128174,4237.948730,4187.692383,4110.769043,4004.615479,435.000000,4.000000,,,,0.000000,4.000000,4.000000,4.000000,4.000000,4.000000,4.000000,4.000000,4.000000,4.000000,4.000000,2.000000,2.000000,4.000000,1.000000,41.666668
1600982355.562014,127.000000,0.000000,3924.102539,4645.641113,4150.769043,4265.641113,4038.974365,4631.282227,3985.128174,3904.102539,4339.487305,4075.384521,4233.333496,4185.641113,4103.589844,4004.102539,125.000000,4.000000,,,,0.000000,4.000000,4.000000,4.000000,4.000000,4.000000,4.000000,4.000000,4.000000,4.000000,4.000000,2.000000,2.000000,4.000000,1.000000,41.666668
1600982355.569742,128.000000,0.000000,3939.487061,4674.871582,4164.102539,4277.948730,4037.435791,4640.000000,3985.128174,3919.487061,4357.436035,4081.025635,4233.846191,4187.692383,4099.487305,4006.666748,318.000000,4.000000,,,,0.000000,4.000000,4.000000,4.000000,4.000000,4.000000,4.000000,4.000000,4.000000,4.000000,4.000000,2.000000,2.000000,4.000000,1.000000,41.666668
1600982355.577569,0.000000,0.000000,3937.948730,4682.051270,4165.641113,4281.538574,4035.384521,4641.538574,3985.128174,3916.923096,4350.256348,4072.307617,4218.974121,4177.948730,4074.358887,4004.615479,416.000000,4.000000,,,,0.000000,4.000000,4.000000,4.000000,4.000000,4.000000,4.000000,4.000000,4.000000,4.000000,4.000000,2.000000,2.000000,4.000000,1.000000,41.666668
1600982355.585296,1.000000,0.000000,3936.923096,4692.307617,4161.025879,4286.666504,4036.923096,4632.307617,3978.461426,3899.487061,4326.666504,4056.410156,4205.641113,4168.717773,4051.281982,3997.948730,435.000000,4.000000,,,,0.000000,4.000000,4.000000,4.000000,4.000000,4.000000,4.000000,4.000000,4.000000,4.000000,4.000000,2.000000,2.000000,4.000000,1.000000,41.666668
1600982355.593123,2.000000,0.000000,3937.435791,4706.153809,4160.000000,4290.769043,4043.076904,4630.769043,3975.384521,3893.846191,4323.077148,4050.256348,4205.128418,4172.307617,4044.102539,3995.384521,450.000000,4.000000,,,,0.000000,4.000000,4.000000,4.000000,4.000000,4.000000,4.000000,4.000000,4.000000,4.000000,4.000000,2.000000,2.000000,4.000000,1.000000,41.666668
1600982355.600850,3.000000,0.000000,3933.333252,4706.153809,4156.410156,4287.692383,4045.641113,4639.487305,3976.410156,3887.692383,4322.563965,4042.051270,4202.051270,4176.410156,4040.512939,3995.384521,455.000000,4.000000,,,,0.000000,4.000000,4.000000,4.000000,4.000000,4.000000,4.000000,4.000000,4.000000,4.000000,4.000000,2.000000,2.000000,4.000000,1.000000,41.666668
1600982355.608783,4.000000,0.000000,3918.461426,4685.128418,4143.589844,4273.333496,4035.384521,4629.743652,3966.666748,3871.794922,4304.102539,4029.743652,4192.307617,4168.205078,4029.743652,3990.256348,470.000000,4.000000,,,,0.000000,4.000000,4.000000,4.000000,4.000000,4.000000,4.000000,4.000000,4.000000,4.000000,4.000000,2.000000,2.000000,4.000000,1.000000,41.666668
1600982355.616616,5.000000,0.000000,3906.153809,4671.282227,4138.461426,4268.205078,4026.153809,4610.769043,3958.974365,3878.461426,4302.051270,4033.846191,4193.846191,4164.615234,4025.128174,3984.615479,443.000000,4.000000,,,,0.000000,4.000000,4.000000,4.000000,4.000000,4.000000,4.000000,4.000000,4.000000,4.000000,4.000000,2.000000,2.000000,4.000000,1.000000,41.666668
1600982355.624548,6.000000,0.000000,3913.846191,4680.512695,4152.307617,4280.512695,4033.333252,4623.589844,3971.794922,3900.000000,4322.563965,4046.153809,4206.153809,4177.436035,4035.384521,3991.794922,442.000000,4.000000,,,,0.000000,4.000000,4.000000,4.000000,4.000000,4.000000,4.000000,4.000000,4.000000,4.000000,4.000000,2.000000,2.000000,4.000000,1.000000,41.666668
1600982355.632380,7.000000,0.000000,3914.871826,4678.974121,4152.307617,4276.410156,4032.820557,4643.589844,3976.923096,3896.923096,4325.128418,4036.410156,4200.512695,4176.922852,4032.307617,3993.846191,389.000000,4.000000,,,,0.000000,4.000000,4.000000,4.000000,4.000000,4.000000,4.000000,4.000000,4.000000,4.000000,4.000000,2.000000,2.000000,4.000000,1.000000,41.666668
1600982355.640312,8.000000,0.000000,3898.461426,4667.179688,4136.410156,4262.563965,4022.564209,4630.769043,3968.718018,3889.230713,4314.358887,4030.769287,4188.717773,4163.589844,4021.025635,3986.153809,396.000000,4.000000,,,,0.000000,4.000000,4.000000,4.000000,4.000000,4.000000,4.000000,4.000000,4.000000,4.000000,4.000000,2.000000,2.000000,4.000000,1.000000,41.666668
1600982355.648143,9.000000,0.000000,3896.410156,4669.230957,4135.897461,4266.153809,4025.641113,4619.487305,3974.358887,3897.435791,4317.436035,4044.615479,4196.922852,4167.692383,4026.666748,3985.641113,406.000000,4.000000,,,,0.000000,4.000000,4.000000,4.000000,4.000000,4.000000,4.000000,4.000000,4.000000,4.000000,4.000000,2.000000,2.000000,4.000000,1.000000,41.666668
1600982355.656074,10.000000,0.000000,3905.641113,4671.794922,4141.538574,4269.230957,4032.820557,4631.794922,3983.076904,3898.974365,4324.615234,4048.205078,4207.692383,4174.358887,4033.846191,3988.205078,438.000000,4.000000,,,,0.000000,4.000000,4.000000,4.000000,4.000000,4.000000,4.000000,4.000000,4.000000,4.000000,4.000000,2.000000,2.000000,4.000000,1.000000,41.666668
1600982355.663905,11.000000,0.000000,3891.794922,4654.871582,4124.615234,4254.358887,4023.589844,4627.692383,3968.718018,3881.025635,4308.717773,4033.333252,4198.461426,4164.615234,4022.564209,3981.025635,125.000000,4.000000,,,,0.000000,4.000000,4.000000,4.000000,4.000000,4.000000,4.000000,4.000000,4.000000,4.000000,4.000000,2.000000,2.000000,4.000000,1.000000,41.666668
1600982355.671636,12.000000,0.000000,3881.538574,4644.615234,4112.307617,4249.743652,4015.384521,4613.333496,3961.025635,3872.820557,4297.436035,4030.256348,4189.230957,4164.615234,4018.974365,3975.384521,316.000000,4.000000,,,,0.000000,4.000000,4.000000,4.000000,4.000000,4.000000,4.000000,4.000000,4.000000,4.000000,4.000000,2.000000,2.000000,4.000000,1.000000,41.666668
1600982355.679467,13.000000,0.000000,3890.769287,4650.769043,4121.025879,4257.436035,4016.923096,4620.000000,3971.281982,3885.128174,4313.333496,4037.948730,4193.846191,4174.358887,4026.666748,3980.512939,300.000000,4.000000,,,,0.000000,4.000000,4.000000,4.000000,4.000000,4.000000,4.000000,4.000000,4.000000,4.000000,4.000000,2.000000,2.000000,4.000000,1.000000,41.666668
1600982355.687197,14.000000,0.000000,3892.820557,4658.461426,4129.743652,4263.077148,4026.666748,4632.307617,3975.384521,3893.846191,4326.153809,4039.487061,4201.025879,4169.230957,4027.692383,3981.025635,438.000000,4.000000,,,,0.000000,4.000000,4.000000,4.000000,4.000000,4.000000,4.000000,4.000000,4.000000,4.000000,4.000000,2.000000,2.000000,4.000000,1.000000,41.666668
1600982355.695026,15.000000,0.000000,3889.743652,4661.025879,4130.256348,4262.563965,4036.410156,4626.153809,3971.281982,3896.923096,4324.615234,4048.205078,4202.051270,4169.743652,4030.256348,3980.512939,125.000000,4.000000,,,,0.000000,4.000000,4.000000,4.000000,4.000000,4.000000,4.000000,4.000000,4.000000,4.000000,4.000000,2.000000,2.000000,4.000000,1.000000,41.666668
1600982355.702756,16.000000,0.000000,3897.948730,4663.589844,4134.871582,4257.948730,4027.692383,4617.948730,3972.307617,3904.615479,4323.589844,4063.589844,4206.153809,4181.025879,4040.512939,3985.128174,0.000000,4.000000,,,,0.000000,4.000000,4.000000,4.000000,4.000000,4.000000,4.000000,4.000000,4.000000,4.000000,4.000000,2.000000,2.000000,4.000000,1.000000,41.666668
1600982355.710585,17.000000,0.000000,3905.128174,4664.615234,4138.461426,4260.512695,4013.333252,4621.538574,3977.435791,3906.666748,4325.641113,4059.487061,4208.717773,4179.487305,4044.102539,3989.743652,0.000000,4.000000,,,,0.000000,4.000000,4.000000,4.000000,4.000000,4.000000,4.000000,4.000000,4.000000,4.000000,4.000000,2.000000,2.000000,4.000000,1.000000,41.666668
1600982355.718314,18.000000,0.000000,3905.641113,4666.666504,4140.000000,4269.743652,4024.102539,4635.897461,3985.128174,3904.615479,4334.358887,4048.718018,4207.179688,4175.897461,4044.102539,3988.205078,0.000000,4.000000,,,,0.000000,4.000000,4.000000,4.000000,4.000000,4.000000,4.000000,4.000000,4.000000,4.000000,4.000000,2.000000,2.000000,4.000000,1.000000,41.666668
1600982355.726143,19.000000,0.000000,3899.487061,4662.051270,4135.897461,4263.077148,4041.025635,4634.871582,3985.128174,3897.948730,4331.794922,4048.718018,4199.487305,4174.871582,4041.025635,3985.128174,0.000000,4.000000,,,,0.000000,4.000000,4.000000,4.000000,4.000000,4.000000,4.000000,4.000000,4.000000,4.000000,4.000000,2.000000,2.000000,4.000000,1.000000,41.666668
1600982355.733872,20.000000,0.000000,3901.025635,4659.487305,4133.846191,4256.922852,4043.589844,4617.948730,3985.641113,3895.384521,4324.615234,4054.871826,4196.410156,4169.230957,4037.948730,3985.128174,0.000000,4.000000,,,,0.000000,4.000000,4.000000,4.000000,4.000000,4.000000,4.000000,4.000000,4.000000,4.000000,4.000000,2.000000,2.000000,4.000000,1.000000,41.666668
1600982355.741700,21.000000,0.000000,3915.384521,4674.358887,4144.102539,4270.769043,4037.435791,4623.077148,3992.307617,3909.743652,4337.436035,4065.128174,4206.153809,4172.307617,4044.102539,3988.205078,0.000000,4.000000,,,,0.000000,4.000000,4.000000,4.000000,4.000000,4.000000,4.000000,4.000000,4.000000,4.000000,4.000000,2.000000,2.000000,4.000000,1.000000,41.666668
1600982355.749428,22.000000,0.000000,3923.076904,4687.179688,4150.769043,4274.358887,4035.897461,4641.538574,3991.281982,3918.974365,4345.641113,4069.743652,4212.820313,4182.563965,4054.358887,3988.718018,0.000000,4.000000,,,,0.000000,4.000000,4.000000,4.000000,4.000000,4.000000,4.000000,4.000000,4.000000,4.000000,4.000000,2.000000,2.000000,4.000000,1.000000,41.666668
1600982355.757255,23.000000,0.000000,3917.948730,4684.615234,4142.563965,4265.641113,4044.102539,4643.589844,3985.641113,3907.692383,4332.820313,4056.923096,4210.256348,4179.487305,4054.871826,3988.205078,0.000000,4.000000,,,,0.000000,4.000000,4.000000,4.000000,4.000000,4.000000,4.000000,4.000000,4.000000,4.000000,4.000000,2.000000,2.000000,4.000000,1.000000,41.666668
1600982355.764982,24.000000,0.000000,3913.846191,4677.436035,4134.358887,4268.717773,4044.102539,4636.410156,3981.538574,3891.281982,4318.974121,4036.923096,4206.153809,4170.256348,4048.718018,3988.205078,0.000000,4.000000,,,,0.000000,4.000000,4.000000,4.000000,4.000000,4.000000,4.000000,4.000000,4.000000,4.000000,4.000000,2.000000,2.000000,4.000000,1.000000,41.666668
1600982355.772809,25.000000,0.000000,3915.384521,4672.307617,4135.897461,4273.846191,4028.205078,4633.333496,3974.358887,3882.564209,4314.871582,4034.358887,4206.666504,4173.846191,4047.692383,3988.718018,0.000000,4.000000,,,,0.000000,4.000000,4.000000,4.000000,4.000000,4.000000,4.000000,4.000000,4.000000,4.000000,4.000000,2.000000,2.000000,4.000000,1.000000,41.666668
1600982355.780536,26.000000,0.000000,3917.435791,4669.230957,4136.410156,4269.743652,4022.564209,4627.179688,3969.230713,3882.051270,4315.384766,4045.128174,4210.256348,4176.410156,4051.281982,3989.230713,0.000000,4.000000,,,,0.000000,4.000000,4.000000,4.000000,4.000000,4.000000,4.000000,4.000000,4.000000,4.000000,4.000000,2.000000,2.000000,4.000000,1.000000,41.666668
1600982355.788469,27.000000,0.000000,3922.051270,4675.897461,4139.487305,4274.358887,4034.871826,4624.615234,3977.948730,3894.358887,4329.230957,4058.974365,4220.512695,4173.846191,4056.923096,3989.743652,0.000000,4.000000,,,,0.000000,4.000000,4.000000,4.000000,4.000000,4.000000,4.000000,4.000000,4.000000,4.000000,4.000000,2.000000,2.000000,4.000000,1.000000,41.666668
1600982355.796301,28.000000,0.000000,3918.461426,4675.897461,4139.487305,4277.948730,4031.281982,4627.692383,3982.564209,3897.435791,4333.333496,4054.871826,4223.077148,4170.769043,4051.281982,3988.718018,0.000000,4.000000,,,,0.000000,4.000000,4.000000,4.000000,4.000000,4.000000,4.000000,4.000000,4.000000,4.000000,4.000000,2.000000,2.000000,4.000000,1.000000,41.666668
1600982355.804233,29.000000,0.000000,3917.948730,4673.846191,4138.974121,4276.922852,4024.615479,4628.205078,3981.538574,3893.333252,4329.743652,4047.692383,4219.487305,4172.307617,4047.692383,3987.692383,0.000000,4.000000,,,,0.000000,4.000000,4.000000,4.000000,4.000000,4.000000,4.000000,4.000000,4.000000,4.000000,4.000000,2.000000,2.000000,4.000000,1.000000,41.666668
1600982355.812065,30.000000,0.000000,3928.205078,4676.922852,4145.128418,4281.025879,4026.153809,4630.769043,3985.128174,3900.000000,4334.358887,4051.281982,4224.102539,4177.436035,4055.384521,3990.256348,0.000000,4.000000,,,,0.000000,4.000000,4.000000,4.000000,4.000000,4.000000,4.000000,4.000000,4.000000,4.000000,4.000000,2.000000,2.000000,4.000000,1.000000,41.666668
1600982355.819997,31.000000,0.000000,3928.205078,4674.871582,4146.666504,4281.025879,4027.179443,4632.307617,3987.179443,3904.102539,4333.846191,4053.846191,4226.666504,4180.512695,4058.461426,3992.307617,0.000000,4.000000,,,,0.000000,4.000000,4.000000,4.000000,4.000000,4.000000,4.000000,4.000000,4.000000,4.000000,4.000000,2.000000,2.000000,4.000000,1.000000,41.666668
1600982355.827828,32.000000,0.000000,3915.897461,4668.205078,4136.922852,4274.358887,4024.102539,4630.256348,3984.615479,3900.512939,4328.205078,4052.307617,4221.538574,4179.487305,4052.307617,3991.794922,0.000000,4.000000,,,,0.000000,4.000000,4.000000,4.000000,4.000000,4.000000,4.000000,4.000000,4.000000,4.000000,4.000000,2.000000,2.000000,4.000000,1.000000,41.666668
1600982355.835759,33.000000,0.000000,3915.897461,4665.641113,4133.333496,4275.897461,4027.692383,4631.794922,3983.076904,3899.487061,4327.692383,4051.281982,4221.025879,4176.922852,4050.769287,3988.718018,0.000000,4.000000,,,,0.000000,4.000000,4.000000,4.000000,4.000000,4.000000,4.000000,4.000000,4.000000,4.000000,4.000000,2.000000,2.000000,4.000000,1.000000,41.666668
1600982355.843591,34.000000,0.000000,3930.769287,4673.846191,4144.102539,4288.717773,4038.974365,4636.922852,3984.102539,3901.025635,4334.871582,4053.846191,4231.282227,4180.000000,4064.615479,3993.846191,0.000000,4.000000,,,,0.000000,4.000000,4.000000,4.000000,4.000000,4.000000,4.000000,4.000000,4.000000,4.000000,4.000000,2.000000,2.000000,4.000000,1.000000,41.666668
1600982355.851521,35.000000,0.000000,3934.871826,4683.077148,4148.205078,4291.794922,4040.000000,4638.974121,3985.128174,3904.615479,4340.512695,4060.512939,4231.282227,4184.615234,4070.769287,3998.974365,0.000000,4.000000,,,,0.000000,4.000000,4.000000,4.000000,4.000000,4.000000,4.000000,4.000000,4.000000,4.000000,4.000000,2.000000,2.000000,4.000000,1.000000,41.666668
1600982355.859351,36.000000,0.000000,3926.666748,4677.436035,4140.000000,4282.051270,4031.281982,4628.205078,3978.974365,3901.538574,4333.333496,4058.461426,4220.000000,4184.615234,4058.974365,3994.358887,0.000000,4.000000,,,,0.000000,4.000000,4.000000,4.000000,4.000000,4.000000,4.000000,4.000000,4.000000,4.000000,4.000000,2.000000,2.000000,4.000000,1.000000,41.666668
1600982355.867081,37.000000,0.000000,3930.769287,4671.794922,4144.102539,4283.077148,4032.307617,4628.205078,3979.487061,3895.897461,4333.846191,4057.948730,4224.615234,4189.230957,4059.487061,3992.820557,0.000000,4.000000,,,,0.000000,4.000000,4.000000,4.000000,4.000000,4.000000,4.000000,4.000000,4.000000,4.000000,4.000000,2.000000,2.000000,4.000000,1.000000,41.666668
1600982355.874911,38.000000,0.000000,3938.461426,4678.461426,4153.846191,4289.743652,4035.384521,4642.563965,3986.153809,3900.000000,4345.641113,4064.102539,4236.410156,4194.871582,4069.743652,3999.487061,0.000000,4.000000,,,,0.000000,4.000000,4.000000,4.000000,4.000000,4.000000,4.000000,4.000000,4.000000,4.000000,4.000000,2.000000,2.000000,4.000000,1.000000,41.666668
1600982355.882640,39.000000,0.000000,3929.743652,4674.358887,4148.205078,4284.102539,4027.179443,4638.461426,3983.076904,3899.487061,4338.974121,4054.871826,4230.256348,4190.256348,4058.974365,3996.410156,0.000000,4.000000,,,,0.000000,4.000000,4.000000,4.000000,4.000000,4.000000,4.000000,4.000000,4.000000,4.000000,4.000000,2.000000,2.000000,4.000000,1.000000,41.666668
1600982355.890470,40.000000,0.000000,3923.076904,4663.589844,4141.025879,4278.461426,4025.641113,4627.179688,3973.333252,3892.820557,4327.179688,4043.076904,4218.461426,4188.205078,4045.128174,3991.281982,0.000000,4.000000,,,,0.000000,4.000000,4.000000,4.000000,4.000000,4.000000,4.000000,4.000000,4.000000,4.000000,4.000000,2.000000,2.000000,4.000000,1.000000,41.666668
1600982355.898198,41.000000,0.000000,3929.743652,4669.230957,4146.153809,4282.051270,4031.794922,4632.307617,3974.871826,3895.384521,4332.307617,4052.307617,4223.589844,4193.333496,4052.820557,3991.794922,0.000000,4.000000,,,,0.000000,4.000000,4.000000,4.000000,4.000000,4.000000,4.000000,4.000000,4.000000,4.000000,4.000000,2.000000,2.000000,4.000000,1.000000,41.666668
1600982355.906027,42.000000,0.000000,3935.384521,4680.000000,4150.769043,4286.153809,4031.281982,4636.410156,3984.102539,3905.641113,4340.512695,4065.641113,4230.769043,4192.820313,4061.025635,3991.281982,0.000000,4.000000,,,,0.000000,4.000000,4.000000,4.000000,4.000000,4.000000,4.000000,4.000000,4.000000,4.000000,4.000000,2.000000,2.000000,4.000000,1.000000,41.666668
1600982355.913755,43.000000,0.000000,3929.743652,4675.384766,4146.153809,4284.102539,4028.718018,4628.205078,3980.512939,3900.512939,4335.897461,4058.974365,4223.589844,4187.692383,4053.333252,3989.230713,0.000000,4.000000,,,,0.000000,4.000000,4.000000,4.000000,4.000000,4.000000,4.000000,4.000000,4.000000,4.000000,4.000000,2.000000,2.000000,4.000000,1.000000,41.666668
1600982355.921584,44.000000,0.000000,3921.025635,4667.692383,4138.461426,4280.000000,4030.256348,4635.384766,3978.461426,3890.769287,4329.743652,4045.641113,4218.461426,4183.589844,4046.666748,3987.692383,0.000000,4.000000,,,,0.000000,4.000000,4.000000,4.000000,4.000000,4.000000,4.000000,4.000000,4.000000,4.000000,4.000000,2.000000,2.000000,4.000000,1.000000,41.666668
1600982355.929311,45.000000,0.000000,3913.333252,4667.692383,4134.358887,4276.922852,4032.307617,4647.179688,3985.128174,3891.281982,4327.692383,4042.564209,4222.051270,4178.974121,4047.179443,3985.641113,0.000000,4.000000,,,,0.000000,4.000000,4.000000,4.000000,4.000000,4.000000,4.000000,4.000000,4.000000,4.000000,4.000000,2.000000,2.000000,4.000000,1.000000,41.666668
1600982355.937139,46.000000,0.000000,3914.871826,4673.846191,4141.538574,4279.487305,4034.871826,4642.563965,3985.128174,3893.333252,4327.692383,4048.718018,4223.077148,4175.897461,4051.281982,3987.692383,0.000000,4.000000,,,,0.000000,4.000000,4.000000,4.000000,4.000000,4.000000,4.000000,4.000000,4.000000,4.000000,4.000000,2.000000,2.000000,4.000000,1.000000,41.666668
1600982355.944866,47.000000,0.000000,3922.051270,4677.436035,4147.692383,4282.051270,4031.281982,4633.846191,3978.461426,3890.256348,4327.692383,4048.205078,4220.000000,4176.410156,4052.820557,3993.333252,0.000000,4.000000,,,,0.000000,4.000000,4.000000,4.000000,4.000000,4.000000,4.000000,4.000000,4.000000,4.000000,4.000000,2.000000,2.000000,4.000000,1.000000,41.666668
1600982355.952693,48.000000,0.000000,3928.205078,4681.025879,4148.717773,4286.153809,4031.794922,4641.538574,3980.512939,3896.923096,4334.871582,4048.718018,4225.641113,4182.051270,4058.461426,3994.358887,0.000000,4.000000,,,,0.000000,4.000000,4.000000,4.000000,4.000000,4.000000,4.000000,4.000000,4.000000,4.000000,4.000000,2.000000,2.000000,4.000000,1.000000,41.666668
1600982355.960420,49.000000,0.000000,3923.589844,4676.410156,4145.641113,4282.563965,4038.461426,4639.487305,3976.923096,3897.435791,4333.333496,4053.846191,4222.563965,4185.128418,4060.512939,3991.794922,0.000000,4.000000,,,,0.000000,4.000000,4.000000,4.000000,4.000000,4.000000,4.000000,4.000000,4.000000,4.000000,4.000000,2.000000,2.000000,4.000000,1.000000,41.666668
1600982355.968352,50.000000,0.000000,3914.871826,4665.128418,4142.051270,4271.794922,4031.794922,4623.077148,3967.692383,3886.666748,4321.025879,4052.820557,4212.307617,4180.512695,4052.820557,3985.128174,0.000000,4.000000,,,,0.000000,4.000000,4.000000,4.000000,4.000000,4.000000,4.000000,4.000000,4.000000,4.000000,4.000000,2.000000,2.000000,4.000000,1.000000,41.666668
1600982355.976185,51.000000,0.000000,3914.358887,4662.051270,4142.051270,4271.282227,4016.923096,4629.743652,3979.487061,3895.384521,4328.205078,4051.281982,4217.436035,4175.897461,4051.281982,3982.564209,0.000000,4.000000,,,,0.000000,4.000000,4.000000,4.000000,4.000000,4.000000,4.000000,4.000000,4.000000,4.000000,4.000000,2.000000,2.000000,4.000000,1.000000,41.666668
1600982355.984117,52.000000,0.000000,3918.461426,4668.717773,4143.589844,4277.948730,4016.923096,4639.487305,3988.205078,3902.051270,4339.487305,4048.718018,4222.563965,4173.846191,4054.871826,3986.153809,0.000000,4.000000,,,,0.000000,4.000000,4.000000,4.000000,4.000000,4.000000,4.000000,4.000000,4.000000,4.000000,4.000000,2.000000,2.000000,4.000000,1.000000,41.666668
1600982355.991949,53.000000,0.000000,3915.897461,4662.051270,4138.974121,4273.846191,4016.923096,4621.025879,3970.256348,3877.948730,4318.461426,4043.076904,4213.333496,4169.743652,4048.718018,3989.230713,0.000000,4.000000,,,,0.000000,4.000000,4.000000,4.000000,4.000000,4.000000,4.000000,4.000000,4.000000,4.000000,4.000000,2.000000,2.000000,4.000000,1.000000,41.666668
1600982355.999880,54.000000,0.000000,3921.025635,4656.922852,4140.512695,4268.717773,4012.820557,4612.820313,3963.076904,3870.256348,4306.153809,4050.769287,4214.358887,4174.358887,4048.718018,3991.794922,0.000000,4.000000,,,,0.000000,4.000000,4.000000,4.000000,4.000000,4.000000,4.000000,4.000000,4.000000,4.000000,4.000000,2.000000,2.000000,4.000000,1.000000,41.666668
1600982356.007712,55.000000,0.000000,3940.512939,4674.358887,4158.974121,4279.487305,4028.205078,4638.461426,3983.589844,3897.435791,4336.922852,4068.718018,4235.897461,4192.820313,4071.281982,3998.461426,0.000000,4.000000,,,,0.000000,4.000000,4.000000,4.000000,4.000000,4.000000,4.000000,4.000000,4.000000,4.000000,4.000000,2.000000,2.000000,4.000000,1.000000,41.666668
1600982356.015642,56.000000,0.000000,3951.794922,4688.717773,4171.282227,4289.743652,4045.128174,4653.846191,3996.923096,3909.743652,4357.436035,4077.435791,4246.153809,4199.487305,4084.615479,4002.051270,0.000000,4.000000,,,,0.000000,4.000000,4.000000,4.000000,4.000000,4.000000,4.000000,4.000000,4.000000,4.000000,4.000000,2.000000,2.000000,4.000000,1.000000,41.666668
1600982356.023473,57.000000,0.000000,3950.256348,4688.717773,4172.820313,4288.717773,4047.692383,4648.205078,3993.846191,3904.615479,4348.717773,4078.461426,4236.410156,4193.846191,4078.461426,4002.564209,0.000000,4.000000,,,,0.000000,4.000000,4.000000,4.000000,4.000000,4.000000,4.000000,4.000000,4.000000,4.000000,4.000000,2.000000,2.000000,4.000000,1.000000,41.666668
1600982356.031404,58.000000,0.000000,3944.615479,4683.077148,4169.743652,4283.589844,4043.076904,4644.102539,3991.794922,3905.128174,4341.538574,4071.794922,4227.179688,4191.282227,4070.769287,4001.538574,0.000000,4.000000,,,,0.000000,4.000000,4.000000,4.000000,4.000000,4.000000,4.000000,4.000000,4.000000,4.000000,4.000000,2.000000,2.000000,4.000000,1.000000,41.666668
1600982356.039234,59.000000,0.000000,3933.846191,4671.794922,4161.025879,4280.000000,4037.948730,4648.717773,3989.743652,3904.102539,4338.461426,4059.487061,4226.666504,4186.666504,4066.666748,3995.897461,0.000000,4.000000,,,,0.000000,4.000000,4.000000,4.000000,4.000000,4.000000,4.000000,4.000000,4.000000,4.000000,4.000000,2.000000,2.000000,4.000000,1.000000,41.666668
1600982356.046964,60.000000,0.000000,3923.589844,4655.384766,4151.794922,4274.358887,4029.230713,4644.102539,3980.000000,3892.307617,4331.282227,4056.923096,4224.615234,4176.922852,4058.461426,3991.281982,0.000000,4.000000,,,,0.000000,4.000000,4.000000,4.000000,4.000000,4.000000,4.000000,4.000000,4.000000,4.000000,4.000000,2.000000,2.000000,4.000000,1.000000,41.666668
1600982356.054794,61.000000,0.000000,3927.179443,4660.512695,4155.384766,4274.358887,4030.256348,4627.179688,3975.897461,3886.666748,4332.820313,4071.281982,4225.128418,4180.000000,4060.512939,3993.846191,0.000000,4.000000,,,,0.000000,4.000000,4.000000,4.000000,4.000000,4.000000,4.000000,4.000000,4.000000,4.000000,4.000000,2.000000,2.000000,4.000000,1.000000,41.666668
1600982356.062523,62.000000,0.000000,3933.846191,4674.358887,4162.051270,4280.000000,4032.307617,4624.102539,3982.051270,3894.358887,4336.922852,4078.461426,4229.230957,4191.282227,4069.230713,3995.897461,0.000000,4.000000,,,,0.000000,4.000000,4.000000,4.000000,4.000000,4.000000,4.000000,4.000000,4.000000,4.000000,4.000000,2.000000,2.000000,4.000000,1.000000,41.666668
