title:your record name, start timestamp:1600980942.000681, stop timestamp:1600980952.112727, headset type:EPOC, headset serial:80820558, headset firmware:1e00, subject name:alzaabi.su, channels:38, sampling rate:128, samples:1294      , version:2.0
Timestamp,EEG.Counter,EEG.Interpolated,EEG.AF3,EEG.F7,EEG.F3,EEG.FC5,EEG.T7,EEG.P7,EEG.O1,EEG.O2,EEG.P8,EEG.T8,EEG.FC6,EEG.F4,EEG.F8,EEG.AF4,EEG.RawCq,EEG.Battery,MarkerIndex,MarkerType,MarkerValueInt,EEG.MarkerHardware,CQ.AF3,CQ.F7,CQ.F3,CQ.FC5,CQ.T7,CQ.P7,CQ.O1,CQ.O2,CQ.P8,CQ.T8,CQ.FC6,CQ.F4,CQ.F8,CQ.AF4,CQ.Overall
1600980942.000681,103.000000,0.000000,3913.333252,4644.615234,4177.436035,4268.205078,4013.333252,4612.307617,3943.589844,3900.512939,4317.436035,4064.615479,4243.589844,4152.820313,4085.128174,3976.923096,57.000000,4.000000,,,,0.000000,4.000000,4.000000,4.000000,4.000000,4.000000,4.000000,4.000000,4.000000,4.000000,4.000000,2.000000,4.000000,4.000000,1.000000,58.333332
1600980942.008602,104.000000,0.000000,3912.307617,4642.051270,4183.589844,4266.666504,4018.974365,4624.615234,3948.205078,3904.102539,4321.538574,4061.538574,4241.025879,4150.256348,4084.102539,3973.333252,269.000000,4.000000,,,,0.000000,4.000000,4.000000,4.000000,4.000000,4.000000,4.000000,4.000000,4.000000,4.000000,4.000000,2.000000,4.000000,4.000000,1.000000,58.333332
1600980942.016423,105.000000,0.000000,3904.615479,4637.436035,4176.922852,4259.487305,4018.461426,4627.692383,3945.641113,3890.256348,4318.974121,4043.076904,4233.333496,4145.641113,4078.461426,3970.256348,336.000000,4.000000,,,,0.000000,4.000000,4.000000,4.000000,4.000000,4.000000,4.000000,4.000000,4.000000,4.000000,4.000000,2.000000,4.000000,4.000000,1.000000,58.333332
1600980942.024344,106.000000,0.000000,3905.128174,4632.820313,4174.358887,4256.922852,4019.487061,4613.333496,3942.564209,3891.794922,4318.461426,4042.564209,4231.794922,4146.153809,4077.435791,3972.307617,421.000000,4.000000,,,,0.000000,4.000000,4.000000,4.000000,4.000000,4.000000,4.000000,4.000000,4.000000,4.000000,4.000000,2.000000,4.000000,4.000000,1.000000,58.333332
1600980942.032165,107.000000,0.000000,3924.615479,4651.282227,4189.743652,4275.384766,4028.205078,4624.102539,3959.487061,3917.948730,4336.922852,4068.205078,4244.615234,4162.563965,4095.384521,3978.974365,57.000000,4.000000,,,,0.000000,4.000000,4.000000,4.000000,4.000000,4.000000,4.000000,4.000000,4.000000,4.000000,4.000000,2.000000,4.000000,4.000000,1.000000,58.333332
1600980942.040086,108.000000,0.000000,3928.205078,4659.487305,4190.769043,4284.102539,4031.794922,4648.205078,3970.769287,3920.512939,4351.282227,4076.410156,4248.717773,4170.769043,4101.025879,3977.435791,269.000000,4.000000,,,,0.000000,4.000000,4.000000,4.000000,4.000000,4.000000,4.000000,4.000000,4.000000,4.000000,4.000000,2.000000,4.000000,4.000000,1.000000,58.333332
1600980942.047907,109.000000,0.000000,3901.538574,4635.384766,4168.205078,4265.128418,4020.512939,4631.794922,3952.307617,3892.307617,4324.615234,4061.538574,4234.358887,4156.410156,4080.512939,3972.307617,336.000000,4.000000,,,,0.000000,4.000000,4.000000,4.000000,4.000000,4.000000,4.000000,4.000000,4.000000,4.000000,4.000000,2.000000,4.000000,4.000000,1.000000,58.333332
1600980942.055828,110.000000,0.000000,3904.102539,4638.461426,4173.846191,4265.641113,4020.000000,4613.846191,3947.692383,3894.358887,4312.820313,4061.025635,4237.436035,4154.871582,4084.615479,3974.358887,421.000000,4.000000,,,,0.000000,4.000000,4.000000,4.000000,4.000000,4.000000,4.000000,4.000000,4.000000,4.000000,4.000000,2.000000,4.000000,4.000000,1.000000,58.333332
1600980942.063649,111.000000,0.000000,3932.307617,4658.461426,4200.512695,4285.128418,4025.641113,4627.692383,3960.512939,3916.410156,4337.948730,4065.128174,4251.282227,4169.230957,4105.641113,3980.000000,57.000000,4.000000,,,,0.000000,4.000000,4.000000,4.000000,4.000000,4.000000,4.000000,4.000000,4.000000,4.000000,4.000000,2.000000,4.000000,4.000000,1.000000,58.333332
1600980942.071570,112.000000,0.000000,3937.948730,4652.820313,4202.051270,4282.051270,4022.564209,4635.897461,3957.435791,3914.358887,4347.179688,4061.538574,4249.230957,4171.794922,4104.102539,3980.000000,269.000000,4.000000,,,,0.000000,4.000000,4.000000,4.000000,4.000000,4.000000,4.000000,4.000000,4.000000,4.000000,4.000000,2.000000,4.000000,4.000000,1.000000,58.333332
1600980942.079391,113.000000,0.000000,3921.025635,4639.487305,4181.025879,4264.102539,4012.307617,4623.077148,3945.128174,3898.974365,4323.077148,4061.538574,4240.512695,4164.102539,4088.718018,3977.435791,336.000000,4.000000,,,,0.000000,4.000000,4.000000,4.000000,4.000000,4.000000,4.000000,4.000000,4.000000,4.000000,4.000000,2.000000,4.000000,4.000000,1.000000,58.333332
1600980942.087112,114.000000,0.000000,3920.512939,4646.153809,4174.871582,4270.256348,4014.358887,4621.025879,3949.230713,3906.153809,4314.358887,4069.743652,4245.641113,4166.666504,4094.358887,3973.333252,421.000000,4.000000,,,,0.000000,4.000000,4.000000,4.000000,4.000000,4.000000,4.000000,4.000000,4.000000,4.000000,4.000000,2.000000,4.000000,4.000000,1.000000,58.333332
1600980942.094934,115.000000,0.000000,3933.846191,4653.333496,4192.307617,4279.487305,4021.538574,4621.025879,3954.871826,3917.948730,4330.769043,4066.666748,4251.282227,4171.794922,4106.153809,3974.358887,57.000000,4.000000,,,,0.000000,4.000000,4.000000,4.000000,4.000000,4.000000,4.000000,4.000000,4.000000,4.000000,4.000000,2.000000,4.000000,4.000000,1.000000,58.333332
1600980942.102655,116.000000,0.000000,3934.871826,4647.692383,4213.333496,4269.743652,4018.461426,4613.333496,3950.256348,3913.333252,4337.436035,4060.000000,4247.179688,4168.205078,4101.025879,3980.000000,269.000000,4.000000,,,,0.000000,4.000000,4.000000,4.000000,4.000000,4.000000,4.000000,4.000000,4.000000,4.000000,4.000000,2.000000,4.000000,4.000000,1.000000,58.333332
1600980942.110475,117.000000,0.000000,3926.666748,4642.563965,4213.846191,4262.051270,4007.692383,4617.948730,3948.718018,3907.692383,4327.179688,4064.102539,4242.051270,4166.666504,4094.358887,3983.076904,336.000000,4.000000,,,,0.000000,4.000000,4.000000,4.000000,4.000000,4.000000,4.000000,4.000000,4.000000,4.000000,4.000000,2.000000,4.000000,4.000000,1.000000,58.333332
1600980942.118196,118.000000,0.000000,3931.281982,4654.358887,4206.666504,4272.307617,4005.641113,4634.358887,3955.897461,3908.718018,4326.666504,4065.128174,4248.717773,4173.846191,4099.487305,3982.051270,421.000000,4.000000,,,,0.000000,4.000000,4.000000,4.000000,4.000000,4.000000,4.000000,4.000000,4.000000,4.000000,4.000000,2.000000,4.000000,4.000000,1.000000,58.333332
1600980942.126017,119.000000,0.000000,3942.051270,4664.102539,4208.717773,4275.897461,4020.000000,4638.461426,3957.435791,3909.230713,4337.436035,4057.948730,4253.846191,4176.922852,4104.615234,3984.615479,57.000000,4.000000,,,,0.000000,4.000000,4.000000,4.000000,4.000000,4.000000,4.000000,4.000000,4.000000,4.000000,4.000000,2.000000,4.000000,4.000000,1.000000,58.333332
1600980942.133738,120.000000,0.000000,3942.051270,4658.974121,4212.820313,4268.717773,4030.256348,4633.846191,3960.000000,3913.846191,4340.512695,4062.051270,4250.769043,4175.384766,4103.077148,3985.641113,269.000000,4.000000,,,,0.000000,4.000000,4.000000,4.000000,4.000000,4.000000,4.000000,4.000000,4.000000,4.000000,4.000000,2.000000,4.000000,4.000000,1.000000,58.333332
1600980942.141559,121.000000,0.000000,3941.538574,4665.641113,4210.769043,4276.922852,4028.205078,4638.974121,3969.230713,3921.025635,4341.538574,4071.794922,4251.794922,4175.897461,4105.128418,3982.564209,336.000000,4.000000,,,,0.000000,4.000000,4.000000,4.000000,4.000000,4.000000,4.000000,4.000000,4.000000,4.000000,4.000000,2.000000,4.000000,4.000000,1.000000,58.333332
1600980942.149280,122.000000,0.000000,3932.820557,4659.487305,4194.358887,4273.846191,4014.358887,4633.333496,3954.358887,3902.051270,4328.205078,4052.820557,4243.077148,4160.512695,4091.281982,3976.410156,421.000000,4.000000,,,,0.000000,4.000000,4.000000,4.000000,4.000000,4.000000,4.000000,4.000000,4.000000,4.000000,4.000000,2.000000,4.000000,4.000000,1.000000,58.333332
1600980942.157101,123.000000,0.000000,3920.000000,4641.538574,4185.128418,4261.538574,4008.205078,4614.358887,3936.410156,3882.051270,4309.743652,4040.512939,4232.307617,4145.128418,4077.435791,3972.820557,57.000000,4.000000,,,,0.000000,4.000000,4.000000,4.000000,4.000000,4.000000,4.000000,4.000000,4.000000,4.000000,4.000000,2.000000,4.000000,4.000000,1.000000,58.333332
1600980942.164822,124.000000,0.000000,3926.153809,4653.333496,4203.077148,4269.743652,4015.384521,4608.717773,3948.718018,3899.487061,4322.051270,4058.461426,4241.025879,4157.948730,4090.256348,3978.461426,269.000000,4.000000,,,,0.000000,4.000000,4.000000,4.000000,4.000000,4.000000,4.000000,4.000000,4.000000,4.000000,4.000000,2.000000,4.000000,4.000000,1.000000,58.333332
1600980942.172743,125.000000,0.000000,3938.974365,4675.384766,4218.461426,4280.000000,4021.538574,4620.512695,3963.076904,3923.589844,4343.589844,4073.846191,4253.846191,4177.436035,4105.641113,3982.051270,336.000000,4.000000,,,,0.000000,4.000000,4.000000,4.000000,4.000000,4.000000,4.000000,4.000000,4.000000,4.000000,4.000000,2.000000,4.000000,4.000000,1.000000,58.333332
1600980942.180564,126.000000,0.000000,3931.794922,4666.153809,4207.692383,4271.282227,4014.358887,4626.153809,3955.897461,3915.897461,4334.358887,4064.615479,4252.307617,4177.436035,4101.025879,3980.512939,421.000000,4.000000,,,,0.000000,4.000000,4.000000,4.000000,4.000000,4.000000,4.000000,4.000000,4.000000,4.000000,4.000000,2.000000,4.000000,4.000000,1.000000,58.333332
1600980942.188485,127.000000,0.000000,3926.666748,4660.000000,4202.051270,4270.769043,4013.846191,4627.692383,3955.384521,3907.179443,4327.179688,4055.897461,4249.230957,4173.333496,4098.461426,3978.974365,57.000000,4.000000,,,,0.000000,4.000000,4.000000,4.000000,4.000000,4.000000,4.000000,4.000000,4.000000,4.000000,4.000000,2.000000,4.000000,4.000000,1.000000,58.333332
1600980942.196307,128.000000,0.000000,3929.743652,4667.692383,4198.974121,4278.974121,4024.102539,4628.717773,3963.076904,3918.974365,4338.461426,4057.435791,4245.128418,4168.717773,4097.948730,3980.512939,269.000000,4.000000,,,,0.000000,4.000000,4.000000,4.000000,4.000000,4.000000,4.000000,4.000000,4.000000,4.000000,4.000000,2.000000,4.000000,4.000000,1.000000,58.333332
1600980942.204228,0.000000,0.000000,3926.153809,4661.538574,4188.717773,4276.410156,4027.179443,4632.820313,3963.076904,3923.076904,4335.384766,4060.000000,4238.974121,4161.538574,4091.281982,3976.410156,402.000000,4.000000,,,,0.000000,4.000000,4.000000,4.000000,4.000000,4.000000,4.000000,4.000000,4.000000,4.000000,4.000000,2.000000,4.000000,4.000000,1.000000,58.333332
1600980942.212049,1.000000,0.000000,3914.871826,4648.717773,4181.538574,4266.666504,4015.897461,4633.846191,3952.307617,3898.461426,4312.307617,4051.281982,4235.897461,4155.897461,4079.487061,3970.769287,423.000000,4.000000,,,,0.000000,4.000000,4.000000,4.000000,4.000000,4.000000,4.000000,4.000000,4.000000,4.000000,4.000000,2.000000,4.000000,4.000000,1.000000,58.333332
1600980942.219970,2.000000,0.000000,3918.461426,4657.436035,4182.051270,4267.692383,4013.333252,4629.230957,3952.307617,3887.179443,4314.358887,4041.025635,4240.000000,4158.461426,4080.512939,3971.281982,437.000000,4.000000,,,,0.000000,4.000000,4.000000,4.000000,4.000000,4.000000,4.000000,4.000000,4.000000,4.000000,4.000000,2.000000,4.000000,4.000000,1.000000,58.333332
1600980942.227791,3.000000,0.000000,3926.666748,4666.666504,4184.102539,4269.230957,4015.384521,4622.563965,3955.384521,3900.000000,4328.205078,4046.666748,4243.589844,4162.051270,4087.179443,3977.435791,443.000000,4.000000,,,,0.000000,4.000000,4.000000,4.000000,4.000000,4.000000,4.000000,4.000000,4.000000,4.000000,4.000000,2.000000,4.000000,4.000000,1.000000,58.333332
1600980942.235712,4.000000,0.000000,3928.718018,4663.589844,4186.153809,4270.256348,4010.256348,4622.563965,3951.794922,3908.718018,4321.025879,4062.051270,4244.615234,4163.589844,4092.820557,3978.974365,459.000000,4.000000,,,,0.000000,4.000000,4.000000,4.000000,4.000000,4.000000,4.000000,4.000000,4.000000,4.000000,4.000000,2.000000,4.000000,4.000000,1.000000,58.333332
1600980942.243533,5.000000,0.000000,3926.153809,4654.871582,4185.128418,4268.717773,4009.230713,4628.205078,3944.102539,3902.051270,4306.666504,4059.487061,4238.974121,4158.974121,4087.692383,3973.333252,435.000000,4.000000,,,,0.000000,4.000000,4.000000,4.000000,4.000000,4.000000,4.000000,4.000000,4.000000,4.000000,4.000000,2.000000,4.000000,4.000000,1.000000,58.333332
1600980942.251454,6.000000,0.000000,3915.384521,4637.948730,4172.820313,4256.922852,4010.769287,4620.512695,3938.461426,3885.641113,4299.487305,4032.307617,4228.717773,4146.666504,4068.205078,3969.743652,437.000000,4.000000,,,,0.000000,4.000000,4.000000,4.000000,4.000000,4.000000,4.000000,4.000000,4.000000,4.000000,4.000000,2.000000,4.000000,4.000000,1.000000,58.333332
1600980942.259275,7.000000,0.000000,3920.512939,4643.589844,4173.846191,4258.461426,4015.897461,4615.897461,3948.718018,3889.230713,4310.256348,4040.512939,4231.794922,4155.384766,4074.871826,3979.487061,382.000000,4.000000,,,,0.000000,4.000000,4.000000,4.000000,4.000000,4.000000,4.000000,4.000000,4.000000,4.000000,4.000000,2.000000,4.000000,4.000000,1.000000,58.333332
1600980942.266996,8.000000,0.000000,3941.025635,4671.282227,4189.743652,4275.897461,4024.615479,4628.205078,3967.692383,3908.718018,4328.205078,4071.794922,4245.641113,4174.358887,4103.077148,3986.153809,389.000000,4.000000,,,,0.000000,4.000000,4.000000,4.000000,4.000000,4.000000,4.000000,4.000000,4.000000,4.000000,4.000000,2.000000,4.000000,4.000000,1.000000,58.333332
1600980942.274918,9.000000,0.000000,3946.666748,4681.538574,4194.871582,4281.025879,4024.102539,4637.436035,3969.230713,3916.410156,4338.974121,4064.102539,4249.743652,4173.333496,4104.102539,3981.538574,388.000000,4.000000,,,,0.000000,4.000000,4.000000,4.000000,4.000000,4.000000,4.000000,4.000000,4.000000,4.000000,4.000000,2.000000,4.000000,4.000000,1.000000,58.333332
1600980942.282739,10.000000,0.000000,3938.461426,4669.230957,4190.769043,4272.820313,4016.923096,4630.769043,3956.410156,3910.256348,4334.871582,4050.769287,4241.538574,4167.692383,4085.128174,3978.461426,422.000000,4.000000,,,,0.000000,4.000000,4.000000,4.000000,4.000000,4.000000,4.000000,4.000000,4.000000,4.000000,4.000000,2.000000,4.000000,4.000000,1.000000,58.333332
1600980942.290561,11.000000,0.000000,3947.692383,4676.410156,4200.000000,4280.512695,4027.179443,4638.974121,3964.615479,3923.076904,4334.358887,4078.974365,4245.641113,4180.000000,4095.897461,3982.564209,54.000000,4.000000,,,,0.000000,4.000000,4.000000,4.000000,4.000000,4.000000,4.000000,4.000000,4.000000,4.000000,4.000000,2.000000,4.000000,4.000000,1.000000,58.333332
1600980942.298282,12.000000,0.000000,3950.769287,4682.563965,4204.102539,4282.563965,4031.794922,4649.230957,3968.205078,3920.512939,4330.769043,4077.948730,4250.769043,4177.948730,4102.563965,3982.564209,272.000000,4.000000,,,,0.000000,4.000000,4.000000,4.000000,4.000000,4.000000,4.000000,4.000000,4.000000,4.000000,4.000000,2.000000,4.000000,4.000000,1.000000,58.333332
1600980942.306103,13.000000,0.000000,3937.948730,4665.641113,4192.307617,4271.282227,4017.948730,4633.846191,3951.794922,3890.769287,4316.922852,4040.000000,4242.563965,4158.461426,4082.564209,3976.923096,334.000000,4.000000,,,,0.000000,4.000000,4.000000,4.000000,4.000000,4.000000,4.000000,4.000000,4.000000,4.000000,4.000000,2.000000,4.000000,4.000000,1.000000,58.333332
1600980942.313824,14.000000,0.000000,3941.025635,4662.563965,4189.230957,4269.743652,4011.281982,4617.436035,3950.256348,3888.205078,4312.820313,4040.512939,4238.461426,4156.922852,4078.461426,3977.435791,422.000000,4.000000,,,,0.000000,4.000000,4.000000,4.000000,4.000000,4.000000,4.000000,4.000000,4.000000,4.000000,4.000000,2.000000,4.000000,4.000000,1.000000,58.333332
1600980942.321644,15.000000,0.000000,3955.897461,4680.000000,4196.922852,4277.948730,4019.487061,4624.615234,3965.128174,3912.307617,4329.230957,4068.205078,4246.153809,4169.230957,4096.922852,3980.000000,54.000000,4.000000,,,,0.000000,4.000000,4.000000,4.000000,4.000000,4.000000,4.000000,4.000000,4.000000,4.000000,4.000000,2.000000,4.000000,4.000000,1.000000,58.333332
1600980942.329365,16.000000,0.000000,3954.871826,4681.025879,4194.358887,4282.563965,4018.461426,4628.717773,3963.589844,3916.923096,4342.563965,4070.769287,4249.230957,4171.794922,4102.051270,3981.025635,0.000000,4.000000,,,,0.000000,4.000000,4.000000,4.000000,4.000000,4.000000,4.000000,4.000000,4.000000,4.000000,4.000000,2.000000,4.000000,4.000000,1.000000,58.333332
1600980942.337186,17.000000,0.000000,3949.230713,4674.358887,4187.692383,4281.538574,4014.358887,4624.615234,3954.358887,3910.769287,4330.256348,4067.179443,4245.641113,4168.205078,4092.307617,3977.948730,0.000000,4.000000,,,,0.000000,4.000000,4.000000,4.000000,4.000000,4.000000,4.000000,4.000000,4.000000,4.000000,4.000000,2.000000,4.000000,4.000000,1.000000,58.333332
1600980942.344907,18.000000,0.000000,3950.769287,4676.410156,4184.102539,4274.871582,4014.871826,4625.641113,3955.897461,3909.743652,4313.333496,4061.025635,4242.051270,4167.179688,4085.641113,3978.461426,0.000000,4.000000,,,,0.000000,4.000000,4.000000,4.000000,4.000000,4.000000,4.000000,4.000000,4.000000,4.000000,4.000000,2.000000,4.000000,4.000000,1.000000,58.333332
1600980942.352828,19.000000,0.000000,3946.666748,4675.384766,4181.538574,4272.307617,4013.846191,4630.256348,3958.461426,3905.641113,4320.512695,4046.153809,4237.436035,4167.692383,4082.564209,3980.000000,0.000000,4.000000,,,,0.000000,4.000000,4.000000,4.000000,4.000000,4.000000,4.000000,4.000000,4.000000,4.000000,4.000000,2.000000,4.000000,4.000000,1.000000,58.333332
1600980942.360650,20.000000,0.000000,3927.692383,4662.051270,4172.307617,4264.102539,4005.128174,4621.538574,3949.230713,3893.846191,4317.948730,4038.461426,4226.666504,4160.000000,4071.281982,3977.435791,0.000000,4.000000,,,,0.000000,4.000000,4.000000,4.000000,4.000000,4.000000,4.000000,4.000000,4.000000,4.000000,4.000000,2.000000,4.000000,4.000000,1.000000,58.333332
1600980942.368571,21.000000,0.000000,3925.128174,4659.487305,4165.641113,4257.436035,4004.615479,4621.538574,3951.281982,3896.410156,4311.794922,4048.205078,4226.666504,4154.871582,4071.281982,3973.333252,0.000000,4.000000,,,,0.000000,4.000000,4.000000,4.000000,4.000000,4.000000,4.000000,4.000000,4.000000,4.000000,4.000000,2.000000,4.000000,4.000000,1.000000,58.333332
1600980942.376392,22.000000,0.000000,3937.435791,4661.538574,4164.102539,4262.051270,4016.410156,4634.358887,3962.051270,3902.051270,4321.025879,4057.948730,4236.922852,4158.974121,4081.025635,3974.358887,0.000000,4.000000,,,,0.000000,4.000000,4.000000,4.000000,4.000000,4.000000,4.000000,4.000000,4.000000,4.000000,4.000000,2.000000,4.000000,4.000000,1.000000,58.333332
1600980942.384313,23.000000,0.000000,3930.256348,4658.974121,4160.512695,4265.128418,4017.948730,4628.717773,3953.333252,3895.384521,4311.282227,4061.025635,4235.897461,4158.461426,4079.487061,3973.846191,0.000000,4.000000,,,,0.000000,4.000000,4.000000,4.000000,4.000000,4.000000,4.000000,4.000000,4.000000,4.000000,4.000000,2.000000,4.000000,4.000000,1.000000,58.333332
1600980942.392134,24.000000,0.000000,3933.846191,4676.922852,4171.282227,4272.307617,4018.974365,4622.051270,3952.307617,3908.205078,4307.692383,4070.769287,4241.538574,4163.589844,4089.230713,3976.410156,0.000000,4.000000,,,,0.000000,4.000000,4.000000,4.000000,4.000000,4.000000,4.000000,4.000000,4.000000,4.000000,4.000000,2.000000,4.000000,4.000000,1.000000,58.333332
1600980942.400055,25.000000,0.000000,3956.923096,4697.948730,4187.179688,4287.179688,4022.564209,4637.948730,3972.820557,3927.179443,4338.461426,4066.153809,4256.410156,4175.897461,4106.666504,3987.692383,0.000000,4.000000,,,,0.000000,4.000000,4.000000,4.000000,4.000000,4.000000,4.000000,4.000000,4.000000,4.000000,4.000000,2.000000,4.000000,4.000000,1.000000,58.333332
1600980942.407876,26.000000,0.000000,3947.179443,4683.077148,4173.333496,4280.512695,4014.871826,4645.641113,3969.230713,3907.179443,4344.102539,4043.589844,4251.282227,4167.179688,4094.358887,3984.102539,0.000000,4.000000,,,,0.000000,4.000000,4.000000,4.000000,4.000000,4.000000,4.000000,4.000000,4.000000,4.000000,4.000000,2.000000,4.000000,4.000000,1.000000,58.333332
1600980942.415797,27.000000,0.000000,3915.897461,4655.897461,4151.794922,4258.461426,4004.102539,4622.051270,3941.025635,3886.666748,4303.589844,4043.076904,4234.871582,4149.230957,4069.230713,3971.281982,0.000000,4.000000,,,,0.000000,4.000000,4.000000,4.000000,4.000000,4.000000,4.000000,4.000000,4.000000,4.000000,4.000000,2.000000,4.000000,4.000000,1.000000,58.333332
1600980942.423618,28.000000,0.000000,3922.051270,4661.025879,4164.102539,4266.153809,4013.846191,4610.256348,3944.615479,3912.307617,4304.102539,4066.153809,4242.563965,4161.025879,4077.435791,3975.897461,0.000000,4.000000,,,,0.000000,4.000000,4.000000,4.000000,4.000000,4.000000,4.000000,4.000000,4.000000,4.000000,4.000000,2.000000,4.000000,4.000000,1.000000,58.333332
1600980942.431539,29.000000,0.000000,3935.384521,4673.846191,4183.077148,4280.000000,4020.512939,4621.025879,3961.025635,3923.076904,4333.846191,4061.538574,4247.692383,4174.358887,4087.179443,3983.589844,0.000000,4.000000,,,,0.000000,4.000000,4.000000,4.000000,4.000000,4.000000,4.000000,4.000000,4.000000,4.000000,4.000000,2.000000,4.000000,4.000000,1.000000,58.333332
1600980942.439360,30.000000,0.000000,3931.281982,4677.436035,4184.102539,4278.461426,4014.871826,4629.230957,3955.384521,3905.641113,4328.205078,4052.820557,4241.025879,4170.769043,4084.615479,3978.461426,0.000000,4.000000,,,,0.000000,4.000000,4.000000,4.000000,4.000000,4.000000,4.000000,4.000000,4.000000,4.000000,4.000000,2.000000,4.000000,4.000000,1.000000,58.333332
1600980942.447081,31.000000,0.000000,3934.358887,4682.051270,4185.641113,4277.948730,4011.794922,4626.153809,3950.769287,3905.641113,4315.384766,4064.102539,4243.077148,4170.769043,4086.666748,3982.051270,0.000000,4.000000,,,,0.000000,4.000000,4.000000,4.000000,4.000000,4.000000,4.000000,4.000000,4.000000,4.000000,4.000000,2.000000,4.000000,4.000000,1.000000,58.333332
1600980942.454902,32.000000,0.000000,3944.102539,4685.641113,4195.897461,4285.128418,4011.794922,4627.692383,3963.076904,3917.435791,4330.769043,4067.179443,4249.743652,4176.922852,4091.281982,3985.128174,0.000000,4.000000,,,,0.000000,4.000000,4.000000,4.000000,4.000000,4.000000,4.000000,4.000000,4.000000,4.000000,4.000000,2.000000,4.000000,4.000000,1.000000,58.333332
1600980942.462623,33.000000,0.000000,3937.435791,4678.461426,4199.487305,4281.538574,4005.641113,4627.179688,3960.000000,3909.743652,4338.461426,4052.820557,4247.179688,4172.820313,4085.128174,3976.923096,0.000000,4.000000,,,,0.000000,4.000000,4.000000,4.000000,4.000000,4.000000,4.000000,4.000000,4.000000,4.000000,4.000000,2.000000,4.000000,4.000000,1.000000,58.333332
1600980942.470444,34.000000,0.000000,3926.153809,4669.743652,4189.230957,4271.282227,4002.051270,4618.974121,3942.564209,3894.871826,4318.974121,4049.743652,4240.000000,4163.077148,4074.871826,3969.743652,0.000000,4.000000,,,,0.000000,4.000000,4.000000,4.000000,4.000000,4.000000,4.000000,4.000000,4.000000,4.000000,4.000000,2.000000,4.000000,4.000000,1.000000,58.333332
1600980942.478165,35.000000,0.000000,3933.846191,4674.358887,4185.641113,4274.358887,4006.153809,4616.410156,3946.153809,3898.461426,4311.794922,4060.512939,4239.487305,4166.153809,4077.435791,3974.358887,0.000000,4.000000,,,,0.000000,4.000000,4.000000,4.000000,4.000000,4.000000,4.000000,4.000000,4.000000,4.000000,4.000000,2.000000,4.000000,4.000000,1.000000,58.333332
1600980942.485986,36.000000,0.000000,3947.179443,4686.153809,4194.871582,4284.102539,4009.743652,4623.077148,3961.025635,3907.692383,4316.410156,4061.538574,4244.102539,4171.794922,4085.128174,3980.000000,0.000000,4.000000,,,,0.000000,4.000000,4.000000,4.000000,4.000000,4.000000,4.000000,4.000000,4.000000,4.000000,4.000000,2.000000,4.000000,4.000000,1.000000,58.333332
1600980942.493707,37.000000,0.000000,3938.974365,4681.025879,4190.256348,4274.871582,4008.718018,4623.077148,3952.820557,3898.974365,4308.205078,4045.128174,4238.974121,4166.153809,4076.923096,3981.538574,0.000000,4.000000,,,,0.000000,4.000000,4.000000,4.000000,4.000000,4.000000,4.000000,4.000000,4.000000,4.000000,4.000000,2.000000,4.000000,4.000000,1.000000,58.333332
1600980942.501528,38.000000,0.000000,3930.769287,4669.743652,4177.436035,4264.615234,4011.794922,4618.461426,3947.692383,3892.307617,4311.282227,4040.512939,4235.897461,4162.563965,4071.281982,3978.974365,0.000000,4.000000,,,,0.000000,4.000000,4.000000,4.000000,4.000000,4.000000,4.000000,4.000000,4.000000,4.000000,4.000000,2.000000,4.000000,4.000000,1.000000,58.333332
1600980942.509249,39.000000,0.000000,3943.589844,4675.897461,4183.077148,4274.358887,4020.000000,4629.743652,3964.615479,3908.718018,4325.641113,4064.102539,4249.743652,4172.820313,4083.589844,3980.000000,0.000000,4.000000,,,,0.000000,4.000000,4.000000,4.000000,4.000000,4.000000,4.000000,4.000000,4.000000,4.000000,4.000000,2.000000,4.000000,4.000000,1.000000,58.333332
1600980942.517069,40.000000,0.000000,3947.179443,4681.538574,4187.179688,4276.410156,4017.948730,4637.948730,3968.205078,3911.281982,4318.974121,4066.666748,4248.205078,4176.410156,4085.128174,3982.564209,0.000000,4.000000,,,,0.000000,4.000000,4.000000,4.000000,4.000000,4.000000,4.000000,4.000000,4.000000,4.000000,4.000000,2.000000,4.000000,4.000000,1.000000,58.333332
1600980942.524790,41.000000,0.000000,3938.461426,4676.410156,4178.974121,4268.205078,4010.769287,4631.794922,3954.358887,3898.974365,4311.794922,4047.179443,4231.282227,4172.307617,4074.358887,3981.538574,0.000000,4.000000,,,,0.000000,4.000000,4.000000,4.000000,4.000000,4.000000,4.000000,4.000000,4.000000,4.000000,4.000000,2.000000,4.000000,4.000000,1.000000,58.333332
1600980942.532712,42.000000,0.000000,3938.461426,4677.436035,4176.410156,4273.846191,4012.307617,4626.153809,3953.846191,3904.615479,4322.051270,4054.358887,4234.871582,4175.897461,4078.974365,3980.512939,0.000000,4.000000,,,,0.000000,4.000000,4.000000,4.000000,4.000000,4.000000,4.000000,4.000000,4.000000,4.000000,4.000000,2.000000,4.000000,4.000000,1.000000,58.333332
1600980942.540533,43.000000,0.000000,3945.641113,4685.128418,4182.563965,4284.102539,4021.538574,4635.384766,3964.615479,3912.307617,4330.769043,4073.333252,4251.282227,4178.974121,4092.307617,3981.025635,0.000000,4.000000,,,,0.000000,4.000000,4.000000,4.000000,4.000000,4.000000,4.000000,4.000000,4.000000,4.000000,4.000000,2.000000,4.000000,4.000000,1.000000,58.333332
1600980942.548454,44.000000,0.000000,3939.487061,4675.384766,4174.358887,4274.358887,4020.000000,4632.820313,3955.384521,3897.948730,4322.051270,4061.025635,4246.153809,4165.641113,4085.128174,3981.025635,0.000000,4.000000,,,,0.000000,4.000000,4.000000,4.000000,4.000000,4.000000,4.000000,4.000000,4.000000,4.000000,4.000000,2.000000,4.000000,4.000000,1.000000,58.333332
1600980942.556275,45.000000,0.000000,3929.230713,4671.282227,4163.077148,4269.743652,4015.897461,4620.000000,3943.076904,3893.333252,4311.794922,4051.281982,4235.384766,4155.384766,4073.333252,3977.948730,0.000000,4.000000,,,,0.000000,4.000000,4.000000,4.000000,4.000000,4.000000,4.000000,4.000000,4.000000,4.000000,4.000000,2.000000,4.000000,4.000000,1.000000,58.333332
1600980942.564196,46.000000,0.000000,3932.820557,4686.666504,4165.128418,4279.487305,4018.461426,4618.974121,3948.718018,3900.000000,4311.282227,4059.487061,4238.461426,4160.512695,4077.948730,3978.461426,0.000000,4.000000,,,,0.000000,4.000000,4.000000,4.000000,4.000000,4.000000,4.000000,4.000000,4.000000,4.000000,4.000000,2.000000,4.000000,4.000000,1.000000,58.333332
1600980942.572017,47.000000,0.000000,3947.179443,4695.897461,4172.307617,4285.641113,4020.000000,4632.307617,3957.948730,3897.435791,4325.641113,4061.538574,4246.666504,4169.743652,4091.281982,3980.000000,0.000000,4.000000,,,,0.000000,4.000000,4.000000,4.000000,4.000000,4.000000,4.000000,4.000000,4.000000,4.000000,4.000000,2.000000,4.000000,4.000000,1.000000,58.333332
1600980942.579938,48.000000,0.000000,3943.589844,4681.538574,4165.128418,4280.512695,4014.358887,4640.000000,3950.256348,3890.769287,4326.153809,4062.051270,4246.666504,4167.179688,4090.256348,3981.025635,0.000000,4.000000,,,,0.000000,4.000000,4.000000,4.000000,4.000000,4.000000,4.000000,4.000000,4.000000,4.000000,4.000000,2.000000,4.000000,4.000000,1.000000,58.333332
1600980942.587760,49.000000,0.000000,3929.230713,4667.692383,4156.922852,4272.307617,4016.410156,4625.128418,3942.564209,3891.794922,4308.205078,4070.256348,4241.025879,4157.436035,4078.974365,3979.487061,0.000000,4.000000,,,,0.000000,4.000000,4.000000,4.000000,4.000000,4.000000,4.000000,4.000000,4.000000,4.000000,4.000000,2.000000,4.000000,4.000000,1.000000,58.333332
1600980942.595681,50.000000,0.000000,3925.128174,4664.102539,4157.436035,4265.641113,4016.410156,4605.128418,3944.615479,3894.871826,4307.179688,4060.000000,4236.922852,4154.358887,4071.794922,3978.461426,0.000000,4.000000,,,,0.000000,4.000000,4.000000,4.000000,4.000000,4.000000,4.000000,4.000000,4.000000,4.000000,4.000000,2.000000,4.000000,4.000000,1.000000,58.333332
1600980942.603502,51.000000,0.000000,3938.461426,4670.769043,4165.641113,4269.743652,4012.307617,4616.922852,3948.718018,3906.666748,4333.846191,4053.333252,4241.025879,4164.615234,4082.051270,3979.487061,0.000000,4.000000,,,,0.000000,4.000000,4.000000,4.000000,4.000000,4.000000,4.000000,4.000000,4.000000,4.000000,4.000000,2.000000,4.000000,4.000000,1.000000,58.333332
1600980942.611423,52.000000,0.000000,3949.743652,4678.974121,4173.846191,4276.922852,4019.487061,4633.333496,3949.743652,3907.692383,4345.128418,4070.769287,4246.666504,4177.436035,4095.384521,3984.102539,0.000000,4.000000,,,,0.000000,4.000000,4.000000,4.000000,4.000000,4.000000,4.000000,4.000000,4.000000,4.000000,4.000000,2.000000,4.000000,4.000000,1.000000,58.333332
1600980942.619244,53.000000,0.000000,3943.589844,4675.384766,4173.846191,4273.333496,4022.051270,4625.641113,3949.230713,3891.281982,4321.538574,4076.410156,4248.717773,4173.846191,4088.718018,3982.051270,0.000000,4.000000,,,,0.000000,4.000000,4.000000,4.000000,4.000000,4.000000,4.000000,4.000000,4.000000,4.000000,4.000000,2.000000,4.000000,4.000000,1.000000,58.333332
1600980942.627165,54.000000,0.000000,3938.461426,4666.666504,4167.692383,4271.282227,4009.743652,4621.025879,3950.256348,3895.897461,4309.230957,4063.076904,4247.692383,4164.102539,4078.974365,3978.974365,0.000000,4.000000,,,,0.000000,4.000000,4.000000,4.000000,4.000000,4.000000,4.000000,4.000000,4.000000,4.000000,4.000000,2.000000,4.000000,4.000000,1.000000,58.333332
1600980942.634986,55.000000,0.000000,3942.051270,4665.128418,4171.282227,4274.871582,4006.666748,4627.179688,3952.307617,3907.179443,4322.051270,4058.974365,4247.179688,4163.589844,4081.538574,3978.974365,0.000000,4.000000,,,,0.000000,4.000000,4.000000,4.000000,4.000000,4.000000,4.000000,4.000000,4.000000,4.000000,4.000000,2.000000,4.000000,4.000000,1.000000,58.333332
1600980942.642707,56.000000,0.000000,3940.512939,4671.794922,4180.512695,4274.871582,4018.974365,4630.256348,3954.871826,3898.461426,4328.717773,4066.666748,4251.794922,4167.692383,4085.641113,3981.025635,0.000000,4.000000,,,,0.000000,4.000000,4.000000,4.000000,4.000000,4.000000,4.000000,4.000000,4.000000,4.000000,4.000000,2.000000,4.000000,4.000000,1.000000,58.333332
1600980942.650528,57.000000,0.000000,3932.820557,4671.282227,4178.461426,4272.820313,4019.487061,4629.230957,3948.718018,3888.718018,4321.025879,4058.461426,4248.205078,4165.641113,4077.435791,3980.512939,0.000000,4.000000,,,,0.000000,4.000000,4.000000,4.000000,4.000000,4.000000,4.000000,4.000000,4.000000,4.000000,4.000000,2.000000,4.000000,4.000000,1.000000,58.333332
1600980942.658249,58.000000,0.000000,3934.871826,4667.179688,4175.384766,4274.358887,4013.846191,4627.692383,3942.051270,3894.358887,4318.461426,4050.256348,4238.974121,4162.563965,4068.205078,3978.974365,0.000000,4.000000,,,,0.000000,4.000000,4.000000,4.000000,4.000000,4.000000,4.000000,4.000000,4.000000,4.000000,4.000000,2.000000,4.000000,4.000000,1.000000,58.333332
1600980942.666070,59.000000,0.000000,3937.948730,4670.256348,4179.487305,4275.384766,4011.794922,4625.128418,3944.102539,3894.871826,4317.436035,4055.897461,4237.948730,4165.128418,4070.256348,3980.512939,0.000000,4.000000,,,,0.000000,4.000000,4.000000,4.000000,4.000000,4.000000,4.000000,4.000000,4.000000,4.000000,4.000000,2.000000,4.000000,4.000000,1.000000,58.333332
1600980942.673791,60.000000,0.000000,3936.923096,4675.897461,4184.615234,4280.512695,4015.897461,4628.205078,3953.846191,3891.281982,4321.538574,4061.025635,4247.692383,4170.256348,4080.512939,3983.076904,0.000000,4.000000,,,,0.000000,4.000000,4.000000,4.000000,4.000000,4.000000,4.000000,4.000000,4.000000,4.000000,4.000000,2.000000,4.000000,4.000000,1.000000,58.333332
1600980942.681612,61.000000,0.000000,3929.230713,4671.282227,4175.384766,4278.974121,4017.435791,4624.102539,3951.281982,3891.794922,4325.128418,4055.897461,4245.128418,4167.179688,4076.410156,3982.564209,0.000000,4.000000,,,,0.000000,4.000000,4.000000,4.000000,4.000000,4.000000,4.000000,4.000000,4.000000,4.000000,4.000000,2.000000,4.000000,4.000000,1.000000,58.333332
1600980942.689333,62.000000,0.000000,3921.025635,4665.641113,4164.102539,4272.820313,4011.281982,4620.000000,3943.589844,3890.769287,4317.436035,4058.461426,4237.436035,4159.487305,4068.718018,3977.435791,0.000000,4.000000,,,,0.000000,4.000000,4.000000,4.000000,4.000000,4.000000,4.000000,4.000000,4.000000,4.000000,4.000000,2.000000,4.000000,4.000000,1.000000,58.333332
1600980942.697153,63.000000,0.000000,3913.333252,4656.922852,4153.333496,4264.615234,3997.948730,4616.922852,3937.948730,3885.128174,4304.102539,4052.820557,4234.358887,4155.384766,4066.153809,3976.410156,0.000000,4.000000,,,,0.000000,4.000000,4.000000,4.000000,4.000000,4.000000,4.000000,4.000000,4.000000,4.000000,4.000000,2.000000,4.000000,4.000000,1.000000,58.333332
1600980942.704874,64.000000,0.000000,3911.794922,4652.820313,4150.769043,4262.051270,4000.512939,4608.205078,3935.897461,3888.205078,4310.769043,4045.641113,4236.922852,4160.512695,4071.281982,3976.410156,402.000000,4.000000,,,,0.000000,4.000000,4.000000,4.000000,4.000000,4.000000,4.000000,4.000000,4.000000,4.000000,4.000000,2.000000,4.000000,4.000000,1.000000,58.333332
1600980942.712796,65.000000,0.000000,3920.512939,4667.692383,4165.641113,4273.333496,4013.333252,4606.153809,3939.487061,3900.000000,4326.666504,4061.025635,4245.641113,4172.307617,4084.615479,3980.000000,421.000000,4.000000,,,,0.000000,4.000000,4.000000,4.000000,4.000000,4.000000,4.000000,4.000000,4.000000,4.000000,4.000000,2.000000,4.000000,4.000000,1.000000,58.333332
1600980942.720617,66.000000,0.000000,3931.794922,4676.922852,4179.487305,4286.153809,4016.923096,4622.051270,3947.179443,3902.564209,4329.230957,4071.794922,4251.794922,4174.871582,4093.333252,3982.051270,435.000000,4.000000,,,,0.000000,4.000000,4.000000,4.000000,4.000000,4.000000,4.000000,4.000000,4.000000,4.000000,4.000000,2.000000,4.000000,4.000000,1.000000,58.333332
1600980942.728538,67.000000,0.000000,3926.666748,4662.051270,4170.769043,4276.922852,4008.718018,4626.153809,3948.205078,3890.256348,4321.025879,4052.307617,4244.615234,4163.077148,4079.487061,3978.461426,445.000000,4.000000,,,,0.000000,4.000000,4.000000,4.000000,4.000000,4.000000,4.000000,4.000000,4.000000,4.000000,4.000000,2.000000,4.000000,4.000000,1.000000,58.333332
1600980942.736359,68.000000,0.000000,3913.333252,4653.333496,4155.384766,4260.512695,4001.538574,4615.897461,3942.051270,3882.051270,4312.307617,4035.384521,4231.794922,4154.358887,4066.153809,3971.794922,457.000000,4.000000,,,,0.000000,4.000000,4.000000,4.000000,4.000000,4.000000,4.000000,4.000000,4.000000,4.000000,4.000000,2.000000,4.000000,4.000000,1.000000,58.333332
1600980942.744280,69.000000,0.000000,3906.153809,4653.333496,4149.230957,4255.384766,3997.948730,4610.256348,3929.230713,3876.410156,4304.615234,4035.384521,4227.179688,4152.307617,4065.641113,3970.256348,435.000000,4.000000,,,,0.000000,4.000000,4.000000,4.000000,4.000000,4.000000,4.000000,4.000000,4.000000,4.000000,4.000000,2.000000,4.000000,4.000000,1.000000,58.333332
1600980942.752101,70.000000,0.000000,3901.538574,4652.820313,4149.743652,4254.871582,4001.538574,4609.743652,3927.692383,3878.461426,4305.641113,4041.025635,4233.846191,4149.230957,4067.692383,3971.281982,436.000000,4.000000,,,,0.000000,4.000000,4.000000,4.000000,4.000000,4.000000,4.000000,4.000000,4.000000,4.000000,4.000000,2.000000,4.000000,4.000000,1.000000,58.333332
1600980942.760022,71.000000,0.000000,3898.974365,4655.897461,4152.307617,4253.333496,4006.153809,4612.307617,3938.461426,3886.153809,4308.205078,4043.076904,4235.384766,4148.717773,4067.179443,3972.307617,381.000000,4.000000,,,,0.000000,4.000000,4.000000,4.000000,4.000000,4.000000,4.000000,4.000000,4.000000,4.000000,4.000000,2.000000,4.000000,4.000000,1.000000,58.333332
1600980942.767844,72.000000,0.000000,3895.897461,4651.282227,4150.256348,4251.282227,4003.589844,4614.871582,3935.384521,3878.461426,4302.051270,4034.871826,4228.717773,4147.692383,4060.512939,3970.769287,386.000000,4.000000,,,,0.000000,4.000000,4.000000,4.000000,4.000000,4.000000,4.000000,4.000000,4.000000,4.000000,4.000000,2.000000,4.000000,4.000000,1.000000,58.333332
1600980942.775765,73.000000,0.000000,3895.384521,4645.641113,4150.769043,4249.743652,4008.205078,4610.769043,3928.718018,3874.358887,4299.487305,4032.820557,4229.743652,4146.666504,4058.974365,3970.256348,390.000000,4.000000,,,,0.000000,4.000000,4.000000,4.000000,4.000000,4.000000,4.000000,4.000000,4.000000,4.000000,4.000000,2.000000,4.000000,4.000000,1.000000,58.333332
1600980942.783586,74.000000,0.000000,3895.384521,4648.205078,4158.974121,4251.282227,4012.307617,4600.000000,3935.384521,3887.179443,4297.436035,4038.974365,4233.846191,4150.256348,4061.025635,3970.256348,422.000000,4.000000,,,,0.000000,4.000000,4.000000,4.000000,4.000000,4.000000,4.000000,4.000000,4.000000,4.000000,4.000000,2.000000,4.000000,4.000000,1.000000,58.333332
1600980942.791507,75.000000,0.000000,3902.051270,4660.512695,4168.717773,4261.538574,4008.718018,4604.102539,3946.666748,3897.948730,4304.615234,4047.179443,4237.948730,4157.436035,4065.128174,3972.820557,55.000000,4.000000,,,,0.000000,4.000000,4.000000,4.000000,4.000000,4.000000,4.000000,4.000000,4.000000,4.000000,4.000000,2.000000,4.000000,4.000000,1.000000,58.333332
1600980942.799328,76.000000,0.000000,3913.846191,4666.153809,4174.358887,4269.230957,4007.692383,4617.948730,3951.794922,3897.435791,4323.077148,4049.230713,4244.615234,4160.512695,4073.333252,3978.974365,272.000000,4.000000,,,,0.000000,4.000000,4.000000,4.000000,4.000000,4.000000,4.000000,4.000000,4.000000,4.000000,4.000000,2.000000,4.000000,4.000000,1.000000,58.333332
1600980942.807249,77.000000,0.000000,3922.051270,4667.179688,4179.487305,4270.769043,4014.358887,4620.512695,3956.410156,3900.000000,4330.769043,4047.179443,4252.307617,4164.102539,4084.102539,3981.025635,335.000000,4.000000,,,,0.000000,4.000000,4.000000,4.000000,4.000000,4.000000,4.000000,4.000000,4.000000,4.000000,4.000000,2.000000,4.000000,4.000000,1.000000,58.333332
1600980942.815070,78.000000,0.000000,3913.333252,4662.051270,4170.256348,4262.563965,4011.794922,4609.743652,3948.718018,3893.333252,4313.333496,4038.974365,4251.794922,4164.102539,4077.948730,3980.512939,422.000000,4.000000,,,,0.000000,4.000000,4.000000,4.000000,4.000000,4.000000,4.000000,4.000000,4.000000,4.000000,4.000000,2.000000,4.000000,4.000000,1.000000,58.333332
1600980942.822791,79.000000,0.000000,3904.615479,4663.077148,4159.487305,4257.948730,4010.256348,4607.179688,3940.000000,3885.641113,4311.282227,4041.025635,4254.358887,4161.025879,4072.307617,3977.435791,55.000000,4.000000,,,,0.000000,4.000000,4.000000,4.000000,4.000000,4.000000,4.000000,4.000000,4.000000,4.000000,4.000000,2.000000,4.000000,4.000000,1.000000,58.333332
1600980942.830612,80.000000,0.000000,3911.281982,4670.256348,4163.589844,4263.077148,4015.384521,4611.794922,3944.102539,3894.358887,4329.230957,4054.358887,4263.077148,4163.589844,4083.076904,3977.948730,272.000000,4.000000,,,,0.000000,4.000000,4.000000,4.000000,4.000000,4.000000,4.000000,4.000000,4.000000,4.000000,4.000000,2.000000,4.000000,4.000000,1.000000,58.333332
1600980942.838333,81.000000,0.000000,3922.051270,4670.256348,4169.743652,4270.256348,4014.871826,4618.974121,3946.153809,3903.076904,4334.358887,4066.666748,4267.179688,4167.692383,4092.820557,3980.512939,335.000000,4.000000,,,,0.000000,4.000000,4.000000,4.000000,4.000000,4.000000,4.000000,4.000000,4.000000,4.000000,4.000000,2.000000,4.000000,4.000000,1.000000,58.333332
1600980942.846154,82.000000,0.000000,3913.333252,4656.410156,4158.461426,4263.589844,4003.076904,4616.410156,3934.358887,3889.230713,4317.436035,4063.589844,4255.897461,4158.974121,4080.512939,3983.589844,422.000000,4.000000,,,,0.000000,4.000000,4.000000,4.000000,4.000000,4.000000,4.000000,4.000000,4.000000,4.000000,4.000000,2.000000,4.000000,4.000000,1.000000,58.333332
1600980942.853875,83.000000,0.000000,3903.076904,4656.410156,4150.769043,4258.974121,4003.076904,4608.717773,3932.307617,3881.025635,4309.743652,4051.794922,4245.641113,4154.871582,4069.743652,3981.025635,55.000000,4.000000,,,,0.000000,4.000000,4.000000,4.000000,4.000000,4.000000,4.000000,4.000000,4.000000,4.000000,4.000000,2.000000,4.000000,4.000000,1.000000,58.333332
1600980942.861696,84.000000,0.000000,3912.820557,4674.871582,4163.589844,4269.230957,4018.461426,4614.358887,3950.769287,3897.435791,4326.153809,4055.384521,4252.307617,4170.256348,4081.538574,3981.025635,272.000000,4.000000,,,,0.000000,4.000000,4.000000,4.000000,4.000000,4.000000,4.000000,4.000000,4.000000,4.000000,4.000000,2.000000,4.000000,4.000000,1.000000,58.333332
1600980942.869417,85.000000,0.000000,3926.153809,4679.487305,4173.333496,4276.410156,4022.564209,4630.256348,3965.128174,3912.307617,4335.897461,4068.205078,4260.000000,4179.487305,4092.307617,3981.025635,335.000000,4.000000,,,,0.000000,4.000000,4.000000,4.000000,4.000000,4.000000,4.000000,4.000000,4.000000,4.000000,4.000000,2.000000,4.000000,4.000000,1.000000,58.333332
1600980942.877237,86.000000,0.000000,3918.974365,4665.128418,4162.051270,4268.717773,4009.743652,4630.256348,3955.897461,3905.128174,4323.077148,4058.461426,4252.307617,4166.666504,4080.000000,3977.948730,422.000000,4.000000,,,,0.000000,4.000000,4.000000,4.000000,4.000000,4.000000,4.000000,4.000000,4.000000,4.000000,4.000000,2.000000,4.000000,4.000000,1.000000,58.333332
1600980942.884958,87.000000,0.000000,3909.230713,4662.563965,4157.436035,4262.051270,4005.128174,4618.461426,3944.615479,3896.410156,4316.922852,4040.512939,4243.589844,4156.922852,4067.179443,3978.461426,55.000000,4.000000,,,,0.000000,4.000000,4.000000,4.000000,4.000000,4.000000,4.000000,4.000000,4.000000,4.000000,4.000000,2.000000,4.000000,4.000000,1.000000,58.333332
1600980942.892779,88.000000,0.000000,3920.000000,4674.871582,4174.358887,4272.307617,4016.923096,4616.922852,3954.358887,3903.589844,4326.153809,4053.333252,4247.692383,4168.205078,4076.410156,3983.076904,272.000000,4.000000,,,,0.000000,4.000000,4.000000,4.000000,4.000000,4.000000,4.000000,4.000000,4.000000,4.000000,4.000000,2.000000,4.000000,4.000000,1.000000,58.333332
1600980942.900500,89.000000,0.000000,3928.718018,4678.974121,4182.051270,4280.000000,4020.512939,4622.051270,3960.000000,3902.564209,4324.102539,4061.025635,4250.769043,4172.307617,4086.153809,3985.128174,335.000000,4.000000,,,,0.000000,4.000000,4.000000,4.000000,4.000000,4.000000,4.000000,4.000000,4.000000,4.000000,4.000000,2.000000,4.000000,4.000000,1.000000,58.333332
1600980942.908421,90.000000,0.000000,3923.076904,4675.897461,4173.846191,4270.256348,4015.384521,4623.077148,3946.666748,3886.666748,4314.358887,4040.000000,4243.077148,4160.512695,4080.512939,3981.025635,422.000000,4.000000,,,,0.000000,4.000000,4.000000,4.000000,4.000000,4.000000,4.000000,4.000000,4.000000,4.000000,4.000000,2.000000,4.000000,4.000000,1.000000,58.333332
1600980942.916242,91.000000,0.000000,3917.948730,4674.358887,4174.871582,4261.538574,4012.820557,4613.846191,3935.897461,3877.435791,4310.256348,4033.333252,4235.897461,4153.846191,4071.281982,3977.435791,55.000000,4.000000,,,,0.000000,4.000000,4.000000,4.000000,4.000000,4.000000,4.000000,4.000000,4.000000,4.000000,4.000000,2.000000,4.000000,4.000000,1.000000,58.333332
1600980942.924163,92.000000,0.000000,3925.128174,4679.487305,4188.717773,4269.230957,4012.307617,4615.384766,3941.025635,3886.666748,4317.948730,4053.846191,4244.615234,4162.563965,4079.487061,3979.487061,272.000000,4.000000,,,,0.000000,4.000000,4.000000,4.000000,4.000000,4.000000,4.000000,4.000000,4.000000,4.000000,4.000000,2.000000,4.000000,4.000000,1.000000,58.333332
1600980942.931984,93.000000,0.000000,3925.128174,4673.333496,4190.769043,4269.230957,4004.102539,4622.563965,3944.615479,3888.718018,4323.589844,4052.307617,4248.205078,4165.641113,4083.589844,3981.538574,335.000000,4.000000,,,,0.000000,4.000000,4.000000,4.000000,4.000000,4.000000,4.000000,4.000000,4.000000,4.000000,4.000000,2.000000,4.000000,4.000000,1.000000,58.333332
1600980942.939905,94.000000,0.000000,3921.538574,4668.205078,4191.794922,4265.128418,4002.051270,4623.077148,3947.179443,3889.230713,4322.051270,4043.589844,4242.051270,4162.051270,4077.948730,3977.948730,422.000000,4.000000,,,,0.000000,4.000000,4.000000,4.000000,4.000000,4.000000,4.000000,4.000000,4.000000,4.000000,4.000000,2.000000,4.000000,4.000000,1.000000,58.333332
1600980942.947727,95.000000,0.000000,3920.000000,4672.307617,4195.897461,4268.717773,4008.718018,4617.436035,3946.153809,3893.333252,4316.922852,4048.718018,4240.000000,4161.538574,4078.974365,3975.384521,55.000000,4.000000,,,,0.000000,4.000000,4.000000,4.000000,4.000000,4.000000,4.000000,4.000000,4.000000,4.000000,4.000000,2.000000,4.000000,4.000000,1.000000,58.333332
1600980942.955648,96.000000,0.000000,3921.538574,4673.333496,4197.436035,4271.282227,4014.358887,4614.358887,3942.051270,3891.794922,4320.000000,4054.871826,4244.102539,4162.563965,4085.641113,3976.410156,272.000000,4.000000,,,,0.000000,4.000000,4.000000,4.000000,4.000000,4.000000,4.000000,4.000000,4.000000,4.000000,4.000000,2.000000,4.000000,4.000000,1.000000,58.333332
1600980942.963469,97.000000,0.000000,3922.564209,4666.153809,4198.974121,4265.641113,4005.641113,4606.153809,3936.923096,3884.102539,4320.000000,4050.769287,4244.102539,4161.025879,4080.000000,3980.512939,335.000000,4.000000,,,,0.000000,4.000000,4.000000,4.000000,4.000000,4.000000,4.000000,4.000000,4.000000,4.000000,4.000000,2.000000,4.000000,4.000000,1.000000,58.333332
1600980942.971390,98.000000,0.000000,3922.564209,4669.230957,4202.051270,4262.051270,3996.410156,4602.051270,3932.820557,3885.128174,4312.820313,4049.230713,4241.538574,4159.487305,4073.333252,3979.487061,422.000000,4.000000,,,,0.000000,4.000000,4.000000,4.000000,4.000000,4.000000,4.000000,4.000000,4.000000,4.000000,4.000000,2.000000,4.000000,4.000000,1.000000,58.333332
1600980942.979211,99.000000,0.000000,3925.128174,4674.871582,4205.128418,4265.641113,4001.025635,4608.717773,3931.281982,3894.871826,4313.846191,4051.794922,4243.077148,4160.000000,4079.487061,3981.025635,55.000000,4.000000,,,,0.000000,4.000000,4.000000,4.000000,4.000000,4.000000,4.000000,4.000000,4.000000,4.000000,4.000000,2.000000,4.000000,4.000000,1.000000,58.333332
1600980942.986932,100.000000,0.000000,3927.692383,4668.205078,4206.666504,4267.692383,4005.128174,4616.922852,3935.384521,3893.333252,4318.461426,4045.128174,4246.153809,4157.436035,4081.538574,3982.051270,272.000000,4.000000,,,,0.000000,4.000000,4.000000,4.000000,4.000000,4.000000,4.000000,4.000000,4.000000,4.000000,4.000000,2.000000,4.000000,4.000000,1.000000,58.333332
1600980942.994753,101.000000,0.000000,3920.000000,4658.974121,4203.077148,4260.000000,3996.923096,4612.307617,3932.820557,3881.538574,4311.282227,4035.384521,4241.538574,4150.256348,4069.230713,3980.512939,335.000000,4.000000,,,,0.000000,4.000000,4.000000,4.000000,4.000000,4.000000,4.000000,4.000000,4.000000,4.000000,4.000000,2.000000,4.000000,4.000000,1.000000,58.333332
1600980943.002474,102.000000,0.000000,3914.358887,4660.512695,4197.948730,4253.846191,3996.923096,4597.948730,3931.281982,3886.666748,4303.077148,4046.153809,4236.922852,4154.871582,4069.230713,3980.000000,422.000000,4.000000,,,,0.000000,4.000000,4.000000,4.000000,4.000000,4.000000,4.000000,4.000000,4.000000,4.000000,4.000000,2.000000,4.000000,4.000000,1.000000,58.333332
1600980943.010295,103.000000,0.000000,3922.564209,4666.666504,4202.051270,4262.051270,4005.641113,4596.922852,3942.051270,3900.512939,4305.128418,4060.000000,4242.051270,4166.153809,4082.051270,3983.076904,55.000000,4.000000,,,,0.000000,4.000000,4.000000,4.000000,4.000000,4.000000,4.000000,4.000000,4.000000,4.000000,4.000000,2.000000,4.000000,4.000000,1.000000,58.333332
1600980943.018016,104.000000,0.000000,3929.230713,4667.692383,4208.205078,4271.794922,4003.076904,4611.794922,3947.179443,3895.897461,4311.794922,4045.641113,4246.153809,4164.615234,4084.102539,3983.076904,272.000000,4.000000,,,,0.000000,4.000000,4.000000,4.000000,4.000000,4.000000,4.000000,4.000000,4.000000,4.000000,4.000000,2.000000,4.000000,4.000000,1.000000,58.333332
1600980943.025837,105.000000,0.000000,3926.153809,4664.615234,4207.179688,4269.743652,3997.435791,4615.897461,3940.512939,3890.769287,4315.897461,4033.333252,4244.615234,4161.538574,4079.487061,3982.051270,335.000000,4.000000,,,,0.000000,4.000000,4.000000,4.000000,4.000000,4.000000,4.000000,4.000000,4.000000,4.000000,4.000000,2.000000,4.000000,4.000000,1.000000,58.333332
1600980943.033558,106.000000,0.000000,3916.923096,4650.769043,4202.563965,4257.948730,3995.897461,4606.666504,3933.846191,3889.230713,4309.743652,4034.358887,4243.077148,4160.000000,4074.871826,3982.564209,422.000000,4.000000,,,,0.000000,4.000000,4.000000,4.000000,4.000000,4.000000,4.000000,4.000000,4.000000,4.000000,4.000000,2.000000,4.000000,4.000000,1.000000,58.333332
1600980943.041379,107.000000,0.000000,3914.871826,4644.102539,4204.615234,4256.922852,3998.461426,4606.153809,3936.410156,3884.102539,4307.692383,4040.512939,4244.102539,4158.974121,4075.897461,3981.538574,55.000000,4.000000,,,,0.000000,4.000000,4.000000,4.000000,4.000000,4.000000,4.000000,4.000000,4.000000,4.000000,4.000000,2.000000,4.000000,4.000000,1.000000,58.333332
1600980943.049100,108.000000,0.000000,3921.025635,4653.333496,4209.230957,4263.077148,3996.410156,4604.102539,3937.435791,3885.128174,4309.743652,4053.333252,4244.102539,4162.563965,4078.461426,3983.076904,272.000000,4.000000,,,,0.000000,4.000000,4.000000,4.000000,4.000000,4.000000,4.000000,4.000000,4.000000,4.000000,4.000000,2.000000,4.000000,4.000000,1.000000,58.333332
1600980943.056921,109.000000,0.000000,3927.179443,4664.102539,4213.333496,4266.153809,3994.871826,4598.974121,3941.025635,3896.923096,4311.794922,4060.000000,4245.128418,4169.230957,4082.564209,3984.615479,335.000000,4.000000,,,,0.000000,4.000000,4.000000,4.000000,4.000000,4.000000,4.000000,4.000000,4.000000,4.000000,4.000000,2.000000,4.000000,4.000000,1.000000,58.333332
1600980943.064642,110.000000,0.000000,3926.666748,4662.051270,4213.846191,4266.666504,3994.358887,4603.589844,3941.025635,3895.384521,4313.333496,4046.666748,4245.641113,4168.717773,4082.051270,3984.102539,422.000000,4.000000,,,,0.000000,4.000000,4.000000,4.000000,4.000000,4.000000,4.000000,4.000000,4.000000,4.000000,4.000000,2.000000,4.000000,4.000000,1.000000,58.333332
1600980943.072462,111.000000,0.000000,3925.641113,4661.025879,4211.794922,4269.743652,3996.923096,4611.794922,3937.948730,3889.230713,4325.128418,4043.076904,4247.179688,4168.205078,4083.076904,3981.025635,55.000000,4.000000,,,,0.000000,4.000000,4.000000,4.000000,4.000000,4.000000,4.000000,4.000000,4.000000,4.000000,4.000000,2.000000,4.000000,4.000000,1.000000,58.333332
1600980943.080183,112.000000,0.000000,3924.102539,4664.615234,4206.666504,4268.717773,4003.076904,4611.282227,3938.461426,3891.281982,4333.333496,4055.897461,4249.230957,4171.282227,4086.153809,3982.051270,272.000000,4.000000,,,,0.000000,4.000000,4.000000,4.000000,4.000000,4.000000,4.000000,4.000000,4.000000,4.000000,4.000000,2.000000,4.000000,4.000000,1.000000,58.333332
1600980943.088105,113.000000,0.000000,3932.307617,4670.256348,4209.743652,4273.846191,4014.871826,4617.948730,3950.256348,3897.948730,4335.384766,4065.128174,4252.820313,4171.794922,4091.794922,3983.076904,335.000000,4.000000,,,,0.000000,4.000000,4.000000,4.000000,4.000000,4.000000,4.000000,4.000000,4.000000,4.000000,4.000000,2.000000,4.000000,4.000000,1.000000,58.333332
1600980943.095926,114.000000,0.000000,3936.923096,4674.358887,4211.794922,4277.948730,4015.384521,4622.563965,3952.820557,3897.948730,4333.333496,4065.641113,4252.820313,4169.743652,4091.281982,3983.589844,422.000000,4.000000,,,,0.000000,4.000000,4.000000,4.000000,4.000000,4.000000,4.000000,4.000000,4.000000,4.000000,4.000000,2.000000,4.000000,4.000000,1.000000,58.333332
1600980943.103847,115.000000,0.000000,3928.205078,4667.179688,4204.102539,4267.692383,4006.666748,4616.410156,3944.615479,3893.846191,4327.692383,4066.153809,4246.666504,4165.641113,4084.615479,3982.564209,55.000000,4.000000,,,,0.000000,4.000000,4.000000,4.000000,4.000000,4.000000,4.000000,4.000000,4.000000,4.000000,4.000000,2.000000,4.000000,4.000000,1.000000,58.333332
1600980943.111668,116.000000,0.000000,3924.102539,4660.000000,4197.436035,4260.512695,4003.589844,4608.205078,3943.589844,3892.820557,4320.000000,4059.487061,4242.051270,4159.487305,4080.000000,3983.076904,272.000000,4.000000,,,,0.000000,4.000000,4.000000,4.000000,4.000000,4.000000,4.000000,4.000000,4.000000,4.000000,4.000000,2.000000,4.000000,4.000000,1.000000,58.333332
1600980943.119589,117.000000,0.000000,3934.871826,4670.256348,4203.077148,4272.820313,4007.179443,4609.230957,3948.718018,3894.358887,4323.077148,4050.769287,4243.589844,4161.538574,4080.000000,3982.564209,335.000000,4.000000,,,,0.000000,4.000000,4.000000,4.000000,4.000000,4.000000,4.000000,4.000000,4.000000,4.000000,4.000000,2.000000,4.000000,4.000000,1.000000,58.333332
1600980943.127410,118.000000,0.000000,3936.923096,4672.307617,4203.077148,4276.410156,4005.641113,4613.333496,3943.589844,3890.769287,4322.051270,4053.333252,4241.538574,4162.563965,4077.948730,3982.564209,422.000000,4.000000,,,,0.000000,4.000000,4.000000,4.000000,4.000000,4.000000,4.000000,4.000000,4.000000,4.000000,4.000000,2.000000,4.000000,4.000000,1.000000,58.333332
1600980943.135331,119.000000,0.000000,3928.718018,4661.538574,4198.461426,4264.615234,4001.538574,4611.282227,3935.897461,3888.205078,4311.794922,4058.974365,4236.410156,4156.410156,4075.897461,3983.076904,55.000000,4.000000,,,,0.000000,4.000000,4.000000,4.000000,4.000000,4.000000,4.000000,4.000000,4.000000,4.000000,4.000000,2.000000,4.000000,4.000000,1.000000,58.333332
1600980943.143152,120.000000,0.000000,3930.769287,4661.025879,4198.461426,4263.589844,4006.666748,4606.153809,3938.461426,3891.281982,4318.461426,4054.358887,4233.846191,4155.897461,4077.948730,3983.589844,272.000000,4.000000,,,,0.000000,4.000000,4.000000,4.000000,4.000000,4.000000,4.000000,4.000000,4.000000,4.000000,4.000000,2.000000,4.000000,4.000000,1.000000,58.333332
1600980943.151073,121.000000,0.000000,3932.307617,4662.563965,4197.948730,4265.128418,4004.615479,4605.128418,3946.666748,3889.743652,4329.230957,4045.128174,4232.307617,4161.538574,4075.897461,3982.564209,335.000000,4.000000,,,,0.000000,4.000000,4.000000,4.000000,4.000000,4.000000,4.000000,4.000000,4.000000,4.000000,4.000000,2.000000,4.000000,4.000000,1.000000,58.333332
1600980943.158894,122.000000,0.000000,3928.718018,4655.384766,4196.410156,4260.512695,3993.333252,4610.256348,3951.281982,3889.230713,4321.538574,4044.102539,4233.333496,4162.051270,4069.743652,3981.025635,422.000000,4.000000,,,,0.000000,4.000000,4.000000,4.000000,4.000000,4.000000,4.000000,4.000000,4.000000,4.000000,4.000000,2.000000,4.000000,4.000000,1.000000,58.333332
1600980943.166815,123.000000,0.000000,3927.692383,4651.794922,4194.358887,4258.461426,3988.205078,4608.205078,3944.102539,3890.256348,4310.769043,4042.564209,4232.307617,4156.410156,4065.128174,3980.000000,55.000000,4.000000,,,,0.000000,4.000000,4.000000,4.000000,4.000000,4.000000,4.000000,4.000000,4.000000,4.000000,4.000000,2.000000,4.000000,4.000000,1.000000,58.333332
1600980943.174636,124.000000,0.000000,3930.769287,4655.897461,4194.358887,4265.641113,3992.307617,4604.615234,3938.461426,3886.666748,4314.871582,4042.564209,4234.358887,4157.436035,4067.692383,3980.512939,272.000000,4.000000,,,,0.000000,4.000000,4.000000,4.000000,4.000000,4.000000,4.000000,4.000000,4.000000,4.000000,4.000000,2.000000,4.000000,4.000000,1.000000,58.333332
1600980943.182357,125.000000,0.000000,3931.794922,4651.282227,4196.410156,4266.666504,3993.333252,4601.538574,3939.487061,3881.538574,4320.000000,4045.641113,4238.974121,4159.487305,4069.743652,3983.076904,335.000000,4.000000,,,,0.000000,4.000000,4.000000,4.000000,4.000000,4.000000,4.000000,4.000000,4.000000,4.000000,4.000000,2.000000,4.000000,4.000000,1.000000,58.333332
1600980943.190178,126.000000,0.000000,3931.281982,4650.256348,4197.948730,4262.563965,3999.487061,4603.589844,3942.051270,3884.102539,4323.589844,4047.692383,4238.974121,4157.948730,4072.820557,3981.538574,422.000000,4.000000,,,,0.000000,4.000000,4.000000,4.000000,4.000000,4.000000,4.000000,4.000000,4.000000,4.000000,4.000000,2.000000,4.000000,4.000000,1.000000,58.333332
1600980943.197899,127.000000,0.000000,3925.641113,4653.333496,4192.307617,4258.974121,4000.512939,4605.641113,3937.948730,3881.025635,4320.000000,4044.102539,4233.333496,4156.922852,4072.307617,3978.461426,55.000000,4.000000,,,,0.000000,4.000000,4.000000,4.000000,4.000000,4.000000,4.000000,4.000000,4.000000,4.000000,4.000000,2.000000,4.000000,4.000000,1.000000,58.333332
1600980943.205720,128.000000,0.000000,3930.256348,4655.897461,4198.974121,4265.641113,3989.743652,4601.538574,3940.000000,3881.538574,4320.512695,4046.153809,4236.922852,4162.563965,4077.435791,3981.025635,272.000000,4.000000,,,,0.000000,4.000000,4.000000,4.000000,4.000000,4.000000,4.000000,4.000000,4.000000,4.000000,4.000000,2.000000,4.000000,4.000000,1.000000,58.333332
1600980943.213441,0.000000,0.000000,3941.025635,4657.436035,4211.282227,4275.384766,3987.692383,4594.871582,3944.102539,3893.333252,4326.666504,4055.897461,4245.128418,4169.743652,4088.205078,3986.666748,403.000000,4.000000,,,,0.000000,4.000000,4.000000,4.000000,4.000000,4.000000,4.000000,4.000000,4.000000,4.000000,4.000000,2.000000,4.000000,4.000000,1.000000,58.333332
1600980943.221262,1.000000,0.000000,3937.435791,4660.512695,4205.641113,4271.282227,3999.487061,4603.077148,3943.076904,3900.000000,4326.666504,4058.461426,4243.077148,4168.717773,4087.692383,3982.564209,424.000000,4.000000,,,,0.000000,4.000000,4.000000,4.000000,4.000000,4.000000,4.000000,4.000000,4.000000,4.000000,4.000000,2.000000,4.000000,4.000000,1.000000,58.333332
1600980943.228983,2.000000,0.000000,3917.948730,4646.153809,4186.666504,4253.846191,3992.820557,4603.077148,3933.333252,3883.589844,4312.820313,4036.410156,4229.743652,4155.384766,4065.641113,3975.897461,436.000000,4.000000,,,,0.000000,4.000000,4.000000,4.000000,4.000000,4.000000,4.000000,4.000000,4.000000,4.000000,4.000000,2.000000,4.000000,4.000000,1.000000,58.333332
1600980943.236804,3.000000,0.000000,3914.358887,4634.871582,4183.077148,4249.230957,3975.384521,4586.666504,3929.743652,3872.307617,4304.102539,4020.000000,4223.589844,4147.179688,4056.923096,3976.923096,444.000000,4.000000,,,,0.000000,4.000000,4.000000,4.000000,4.000000,4.000000,4.000000,4.000000,4.000000,4.000000,4.000000,2.000000,4.000000,4.000000,1.000000,58.333332
1600980943.244525,4.000000,0.000000,3932.307617,4650.256348,4192.820313,4260.512695,3977.948730,4591.282227,3942.051270,3889.743652,4321.025879,4031.794922,4234.871582,4155.384766,4077.948730,3981.538574,460.000000,4.000000,,,,0.000000,4.000000,4.000000,4.000000,4.000000,4.000000,4.000000,4.000000,4.000000,4.000000,4.000000,2.000000,4.000000,4.000000,1.000000,58.333332
1600980943.252346,5.000000,0.000000,3940.512939,4656.410156,4195.897461,4263.077148,3995.897461,4612.820313,3951.794922,3905.641113,4339.487305,4048.205078,4243.589844,4163.077148,4091.281982,3980.000000,436.000000,4.000000,,,,0.000000,4.000000,4.000000,4.000000,4.000000,4.000000,4.000000,4.000000,4.000000,4.000000,4.000000,2.000000,4.000000,4.000000,1.000000,58.333332
1600980943.260067,6.000000,0.000000,3927.692383,4641.025879,4191.794922,4253.846191,3992.820557,4605.128418,3943.589844,3895.384521,4324.615234,4049.743652,4234.871582,4158.461426,4077.435791,3980.000000,437.000000,4.000000,,,,0.000000,4.000000,4.000000,4.000000,4.000000,4.000000,4.000000,4.000000,4.000000,4.000000,4.000000,2.000000,4.000000,4.000000,1.000000,58.333332
1600980943.267988,7.000000,0.000000,3926.153809,4645.128418,4196.410156,4257.948730,3985.641113,4593.846191,3937.435791,3887.179443,4313.333496,4047.179443,4231.282227,4160.000000,4072.307617,3982.564209,390.000000,4.000000,,,,0.000000,4.000000,4.000000,4.000000,4.000000,4.000000,4.000000,4.000000,4.000000,4.000000,4.000000,2.000000,4.000000,4.000000,1.000000,58.333332
1600980943.275809,8.000000,0.000000,3944.102539,4664.615234,4206.153809,4273.333496,4001.538574,4612.307617,3947.179443,3901.025635,4335.897461,4054.871826,4241.538574,4168.717773,4089.230713,3982.564209,387.000000,4.000000,,,,0.000000,4.000000,4.000000,4.000000,4.000000,4.000000,4.000000,4.000000,4.000000,4.000000,4.000000,2.000000,4.000000,4.000000,1.000000,58.333332
1600980943.283730,9.000000,0.000000,3939.487061,4654.871582,4197.436035,4266.666504,4001.538574,4613.846191,3944.615479,3899.487061,4338.974121,4049.743652,4238.461426,4161.025879,4087.692383,3980.512939,390.000000,4.000000,,,,0.000000,4.000000,4.000000,4.000000,4.000000,4.000000,4.000000,4.000000,4.000000,4.000000,4.000000,2.000000,4.000000,4.000000,1.000000,58.333332
1600980943.291551,10.000000,0.000000,3922.051270,4638.974121,4182.563965,4251.794922,3985.128174,4592.820313,3933.846191,3882.564209,4317.948730,4040.512939,4226.666504,4151.794922,4073.333252,3978.974365,424.000000,4.000000,,,,0.000000,4.000000,4.000000,4.000000,4.000000,4.000000,4.000000,4.000000,4.000000,4.000000,4.000000,2.000000,4.000000,4.000000,1.000000,58.333332
1600980943.299472,11.000000,0.000000,3926.153809,4647.179688,4186.666504,4258.461426,3986.666748,4590.256348,3936.410156,3882.564209,4319.487305,4044.615479,4228.717773,4156.922852,4074.358887,3979.487061,55.000000,4.000000,,,,0.000000,4.000000,4.000000,4.000000,4.000000,4.000000,4.000000,4.000000,4.000000,4.000000,4.000000,2.000000,4.000000,4.000000,1.000000,58.333332
1600980943.307293,12.000000,0.000000,3943.589844,4666.153809,4204.102539,4278.974121,4002.564209,4613.333496,3952.820557,3903.589844,4344.615234,4060.512939,4240.000000,4167.692383,4086.666748,3982.051270,273.000000,4.000000,,,,0.000000,4.000000,4.000000,4.000000,4.000000,4.000000,4.000000,4.000000,4.000000,4.000000,4.000000,2.000000,4.000000,4.000000,1.000000,58.333332
1600980943.315214,13.000000,0.000000,3942.051270,4658.974121,4204.615234,4279.487305,4001.025635,4622.051270,3957.435791,3912.307617,4347.692383,4057.948730,4237.948730,4162.563965,4081.025635,3981.025635,333.000000,4.000000,,,,0.000000,4.000000,4.000000,4.000000,4.000000,4.000000,4.000000,4.000000,4.000000,4.000000,4.000000,2.000000,4.000000,4.000000,1.000000,58.333332
1600980943.323035,14.000000,0.000000,3932.307617,4647.179688,4199.487305,4268.717773,3994.871826,4610.256348,3954.358887,3906.666748,4337.948730,4050.256348,4235.897461,4158.461426,4077.435791,3976.923096,424.000000,4.000000,,,,0.000000,4.000000,4.000000,4.000000,4.000000,4.000000,4.000000,4.000000,4.000000,4.000000,4.000000,2.000000,4.000000,4.000000,1.000000,58.333332
1600980943.330956,15.000000,0.000000,3929.743652,4652.307617,4202.051270,4266.153809,3996.410156,4598.974121,3954.358887,3905.128174,4339.487305,4052.820557,4240.512695,4169.230957,4087.179443,3983.589844,55.000000,4.000000,,,,0.000000,4.000000,4.000000,4.000000,4.000000,4.000000,4.000000,4.000000,4.000000,4.000000,4.000000,2.000000,4.000000,4.000000,1.000000,58.333332
1600980943.338777,16.000000,0.000000,3931.794922,4658.974121,4203.589844,4267.692383,3994.358887,4605.641113,3954.871826,3913.333252,4349.230957,4049.743652,4240.000000,4171.794922,4089.230713,3986.666748,0.000000,4.000000,,,,0.000000,4.000000,4.000000,4.000000,4.000000,4.000000,4.000000,4.000000,4.000000,4.000000,4.000000,2.000000,4.000000,4.000000,1.000000,58.333332
1600980943.346598,17.000000,0.000000,3931.794922,4659.487305,4198.461426,4264.102539,3987.692383,4608.717773,3943.076904,3905.641113,4341.025879,4033.846191,4235.897461,4162.051270,4086.153809,3982.051270,0.000000,4.000000,,,,0.000000,4.000000,4.000000,4.000000,4.000000,4.000000,4.000000,4.000000,4.000000,4.000000,4.000000,2.000000,4.000000,4.000000,1.000000,58.333332
1600980943.354420,18.000000,0.000000,3951.794922,4675.384766,4203.589844,4269.230957,3989.743652,4601.025879,3936.923096,3884.615479,4327.179688,4031.281982,4241.538574,4165.128418,4108.717773,3987.179443,0.000000,4.000000,,,,0.000000,4.000000,4.000000,4.000000,4.000000,4.000000,4.000000,4.000000,4.000000,4.000000,4.000000,2.000000,4.000000,4.000000,1.000000,58.333332
1600980943.362340,19.000000,0.000000,3990.256348,4702.563965,4219.487305,4283.589844,3989.743652,4601.025879,3939.487061,3875.897461,4326.153809,4033.846191,4247.692383,4178.461426,4141.025879,4004.615479,0.000000,4.000000,,,,0.000000,4.000000,4.000000,4.000000,4.000000,4.000000,4.000000,4.000000,4.000000,4.000000,4.000000,2.000000,4.000000,4.000000,1.000000,58.333332
1600980943.370162,20.000000,0.000000,4029.230713,4732.307617,4233.846191,4294.871582,3982.051270,4608.717773,3933.846191,3876.923096,4322.563965,4022.564209,4248.205078,4186.666504,4164.615234,4012.307617,0.000000,4.000000,,,,0.000000,4.000000,4.000000,4.000000,4.000000,4.000000,4.000000,4.000000,4.000000,4.000000,4.000000,2.000000,4.000000,4.000000,1.000000,58.333332
1600980943.377883,21.000000,0.000000,4062.051270,4763.589844,4243.589844,4302.051270,3978.461426,4600.512695,3924.615479,3869.743652,4306.666504,4014.871826,4250.769043,4195.897461,4185.641113,4016.923096,0.000000,4.000000,,,,0.000000,4.000000,4.000000,4.000000,4.000000,4.000000,4.000000,4.000000,4.000000,4.000000,4.000000,2.000000,4.000000,4.000000,1.000000,58.333332
1600980943.385703,22.000000,0.000000,4087.179443,4790.769043,4255.897461,4310.769043,3985.128174,4584.615234,3929.743652,3867.179443,4299.487305,4025.641113,4262.563965,4213.846191,4206.666504,4024.615479,0.000000,4.000000,,,,0.000000,4.000000,4.000000,4.000000,4.000000,4.000000,4.000000,4.000000,4.000000,4.000000,4.000000,2.000000,4.000000,4.000000,1.000000,58.333332
1600980943.393424,23.000000,0.000000,4096.922852,4801.025879,4266.666504,4315.384766,3993.333252,4592.820313,3942.051270,3878.974365,4311.794922,4029.230713,4275.384766,4220.512695,4220.000000,4026.153809,0.000000,4.000000,,,,0.000000,4.000000,4.000000,4.000000,4.000000,4.000000,4.000000,4.000000,4.000000,4.000000,4.000000,2.000000,4.000000,4.000000,1.000000,58.333332
1600980943.401245,24.000000,0.000000,4091.281982,4791.282227,4259.487305,4312.307617,3996.923096,4603.589844,3943.076904,3887.179443,4321.538574,4023.589844,4272.820313,4208.717773,4212.820313,4022.051270,0.000000,4.000000,,,,0.000000,4.000000,4.000000,4.000000,4.000000,4.000000,4.000000,4.000000,4.000000,4.000000,4.000000,2.000000,4.000000,4.000000,1.000000,58.333332
1600980943.408966,25.000000,0.000000,4083.076904,4782.563965,4253.846191,4314.871582,3998.974365,4598.974121,3943.589844,3894.358887,4330.769043,4042.051270,4268.205078,4203.077148,4202.051270,4022.564209,0.000000,4.000000,,,,0.000000,4.000000,4.000000,4.000000,4.000000,4.000000,4.000000,4.000000,4.000000,4.000000,4.000000,2.000000,4.000000,4.000000,1.000000,58.333332
1600980943.416787,26.000000,0.000000,4067.692383,4775.897461,4254.871582,4313.846191,3992.820557,4596.922852,3940.000000,3889.230713,4329.743652,4052.820557,4272.307617,4204.615234,4196.922852,4021.538574,0.000000,4.000000,,,,0.000000,4.000000,4.000000,4.000000,4.000000,4.000000,4.000000,4.000000,4.000000,4.000000,4.000000,2.000000,4.000000,4.000000,1.000000,58.333332
1600980943.424508,27.000000,0.000000,4047.692383,4757.948730,4246.153809,4303.589844,3981.025635,4598.461426,3930.256348,3867.692383,4314.871582,4028.205078,4272.307617,4196.410156,4185.128418,4014.358887,0.000000,4.000000,,,,0.000000,4.000000,4.000000,4.000000,4.000000,4.000000,4.000000,4.000000,4.000000,4.000000,4.000000,2.000000,4.000000,4.000000,1.000000,58.333332
1600980943.432329,28.000000,0.000000,4031.794922,4735.384766,4232.307617,4293.846191,3980.000000,4593.846191,3923.076904,3858.461426,4310.256348,4014.358887,4264.615234,4185.641113,4166.153809,4010.769287,0.000000,4.000000,,,,0.000000,4.000000,4.000000,4.000000,4.000000,4.000000,4.000000,4.000000,4.000000,4.000000,4.000000,2.000000,4.000000,4.000000,1.000000,58.333332
1600980943.440050,29.000000,0.000000,4015.897461,4718.974121,4224.615234,4288.205078,3990.769287,4589.743652,3924.615479,3870.256348,4316.922852,4034.358887,4258.974121,4183.077148,4152.820313,4009.743652,0.000000,4.000000,,,,0.000000,4.000000,4.000000,4.000000,4.000000,4.000000,4.000000,4.000000,4.000000,4.000000,4.000000,2.000000,4.000000,4.000000,1.000000,58.333332
1600980943.447971,30.000000,0.000000,3997.948730,4707.692383,4218.974121,4283.589844,3986.153809,4587.179688,3924.615479,3878.461426,4315.384766,4042.564209,4253.846191,4178.974121,4140.000000,4004.102539,0.000000,4.000000,,,,0.000000,4.000000,4.000000,4.000000,4.000000,4.000000,4.000000,4.000000,4.000000,4.000000,4.000000,2.000000,4.000000,4.000000,1.000000,58.333332
1600980943.455792,31.000000,0.000000,3993.333252,4710.769043,4220.512695,4286.666504,3980.512939,4587.179688,3929.743652,3886.153809,4318.974121,4038.461426,4249.743652,4180.000000,4131.794922,3997.948730,0.000000,4.000000,,,,0.000000,4.000000,4.000000,4.000000,4.000000,4.000000,4.000000,4.000000,4.000000,4.000000,4.000000,2.000000,4.000000,4.000000,1.000000,58.333332
1600980943.463713,32.000000,0.000000,3985.641113,4710.256348,4220.512695,4285.128418,3988.205078,4596.922852,3940.000000,3892.307617,4330.256348,4042.564209,4244.615234,4178.974121,4129.230957,3995.384521,0.000000,4.000000,,,,0.000000,4.000000,4.000000,4.000000,4.000000,4.000000,4.000000,4.000000,4.000000,4.000000,4.000000,2.000000,4.000000,4.000000,1.000000,58.333332
1600980943.471534,33.000000,0.000000,3968.718018,4693.333496,4209.230957,4277.948730,3994.871826,4610.769043,3943.589844,3886.153809,4333.333496,4040.000000,4237.436035,4167.692383,4118.974121,3991.794922,0.000000,4.000000,,,,0.000000,4.000000,4.000000,4.000000,4.000000,4.000000,4.000000,4.000000,4.000000,4.000000,4.000000,2.000000,4.000000,4.000000,1.000000,58.333332
1600980943.479455,34.000000,0.000000,3958.974365,4681.025879,4197.436035,4274.358887,3989.743652,4607.692383,3936.923096,3875.897461,4330.256348,4026.153809,4234.358887,4160.512695,4105.128418,3990.769287,0.000000,4.000000,,,,0.000000,4.000000,4.000000,4.000000,4.000000,4.000000,4.000000,4.000000,4.000000,4.000000,4.000000,2.000000,4.000000,4.000000,1.000000,58.333332
1600980943.487276,35.000000,0.000000,3956.410156,4682.563965,4195.897461,4273.333496,3992.820557,4595.384766,3935.384521,3886.666748,4337.948730,4028.205078,4243.589844,4166.153809,4108.717773,3992.307617,0.000000,4.000000,,,,0.000000,4.000000,4.000000,4.000000,4.000000,4.000000,4.000000,4.000000,4.000000,4.000000,4.000000,2.000000,4.000000,4.000000,1.000000,58.333332
1600980943.495197,36.000000,0.000000,3945.641113,4670.769043,4194.358887,4266.666504,3991.281982,4593.846191,3935.897461,3898.461426,4336.410156,4042.564209,4248.717773,4167.692383,4110.256348,3992.820557,0.000000,4.000000,,,,0.000000,4.000000,4.000000,4.000000,4.000000,4.000000,4.000000,4.000000,4.000000,4.000000,4.000000,2.000000,4.000000,4.000000,1.000000,58.333332
1600980943.503018,37.000000,0.000000,3934.358887,4656.922852,4185.641113,4263.589844,3978.974365,4605.641113,3935.897461,3889.230713,4321.538574,4042.564209,4240.512695,4161.538574,4097.436035,3989.230713,0.000000,4.000000,,,,0.000000,4.000000,4.000000,4.000000,4.000000,4.000000,4.000000,4.000000,4.000000,4.000000,4.000000,2.000000,4.000000,4.000000,1.000000,58.333332
1600980943.510939,38.000000,0.000000,3931.794922,4657.948730,4175.897461,4266.153809,3982.564209,4612.820313,3940.000000,3884.102539,4323.077148,4032.820557,4236.922852,4158.461426,4091.794922,3985.641113,0.000000,4.000000,,,,0.000000,4.000000,4.000000,4.000000,4.000000,4.000000,4.000000,4.000000,4.000000,4.000000,4.000000,2.000000,4.000000,4.000000,1.000000,58.333332
1600980943.518760,39.000000,0.000000,3932.820557,4660.512695,4175.384766,4262.563965,3995.897461,4612.307617,3947.179443,3895.897461,4336.922852,4037.435791,4242.051270,4162.051270,4097.436035,3985.641113,0.000000,4.000000,,,,0.000000,4.000000,4.000000,4.000000,4.000000,4.000000,4.000000,4.000000,4.000000,4.000000,4.000000,2.000000,4.000000,4.000000,1.000000,58.333332
1600980943.526681,40.000000,0.000000,3934.358887,4657.948730,4179.487305,4256.922852,3996.410156,4610.769043,3952.820557,3904.615479,4334.871582,4053.333252,4239.487305,4165.641113,4100.000000,3987.179443,0.000000,4.000000,,,,0.000000,4.000000,4.000000,4.000000,4.000000,4.000000,4.000000,4.000000,4.000000,4.000000,4.000000,2.000000,4.000000,4.000000,1.000000,58.333332
1600980943.534503,41.000000,0.000000,3927.179443,4648.205078,4176.410156,4252.307617,3982.051270,4605.128418,3949.230713,3902.564209,4325.128418,4048.205078,4231.282227,4162.051270,4088.718018,3983.076904,0.000000,4.000000,,,,0.000000,4.000000,4.000000,4.000000,4.000000,4.000000,4.000000,4.000000,4.000000,4.000000,4.000000,2.000000,4.000000,4.000000,1.000000,58.333332
1600980943.542424,42.000000,0.000000,3917.948730,4644.615234,4180.000000,4252.307617,3980.512939,4603.077148,3945.641113,3900.000000,4333.333496,4033.333252,4233.333496,4162.563965,4081.538574,3982.564209,0.000000,4.000000,,,,0.000000,4.000000,4.000000,4.000000,4.000000,4.000000,4.000000,4.000000,4.000000,4.000000,4.000000,2.000000,4.000000,4.000000,1.000000,58.333332
1600980943.550245,43.000000,0.000000,3917.948730,4651.794922,4191.282227,4256.922852,3987.179443,4606.153809,3946.666748,3893.846191,4334.358887,4030.256348,4234.871582,4164.102539,4083.589844,3984.102539,0.000000,4.000000,,,,0.000000,4.000000,4.000000,4.000000,4.000000,4.000000,4.000000,4.000000,4.000000,4.000000,4.000000,2.000000,4.000000,4.000000,1.000000,58.333332
1600980943.557966,44.000000,0.000000,3921.025635,4656.410156,4188.717773,4263.077148,3984.615479,4607.692383,3944.102539,3888.205078,4326.153809,4031.281982,4231.282227,4157.948730,4084.102539,3980.512939,0.000000,4.000000,,,,0.000000,4.000000,4.000000,4.000000,4.000000,4.000000,4.000000,4.000000,4.000000,4.000000,4.000000,2.000000,4.000000,4.000000,1.000000,58.333332
1600980943.565787,45.000000,0.000000,3919.487061,4643.077148,4180.512695,4259.487305,3975.384521,4606.666504,3942.051270,3894.871826,4328.717773,4029.230713,4233.333496,4156.410156,4083.076904,3981.538574,0.000000,4.000000,,,,0.000000,4.000000,4.000000,4.000000,4.000000,4.000000,4.000000,4.000000,4.000000,4.000000,4.000000,2.000000,4.000000,4.000000,1.000000,58.333332
1600980943.573508,46.000000,0.000000,3930.256348,4647.179688,4188.205078,4261.025879,3971.281982,4608.205078,3951.281982,3906.153809,4337.948730,4032.307617,4240.000000,4166.153809,4096.922852,3987.692383,0.000000,4.000000,,,,0.000000,4.000000,4.000000,4.000000,4.000000,4.000000,4.000000,4.000000,4.000000,4.000000,4.000000,2.000000,4.000000,4.000000,1.000000,58.333332
1600980943.581329,47.000000,0.000000,3956.410156,4681.025879,4196.410156,4275.384766,3967.692383,4603.077148,3947.692383,3889.743652,4324.102539,4025.641113,4236.922852,4171.282227,4114.358887,3994.871826,0.000000,4.000000,,,,0.000000,4.000000,4.000000,4.000000,4.000000,4.000000,4.000000,4.000000,4.000000,4.000000,4.000000,2.000000,4.000000,4.000000,1.000000,58.333332
1600980943.589050,48.000000,0.000000,3995.384521,4720.512695,4209.230957,4290.769043,3964.615479,4602.563965,3935.384521,3869.230713,4306.666504,4018.461426,4236.410156,4178.461426,4133.333496,4005.128174,0.000000,4.000000,,,,0.000000,4.000000,4.000000,4.000000,4.000000,4.000000,4.000000,4.000000,4.000000,4.000000,4.000000,2.000000,4.000000,4.000000,1.000000,58.333332
1600980943.596870,49.000000,0.000000,4028.718018,4746.666504,4226.153809,4293.846191,3964.615479,4602.051270,3933.846191,3872.820557,4312.820313,4021.025635,4246.666504,4192.820313,4165.641113,4016.410156,0.000000,4.000000,,,,0.000000,4.000000,4.000000,4.000000,4.000000,4.000000,4.000000,4.000000,4.000000,4.000000,4.000000,2.000000,4.000000,4.000000,1.000000,58.333332
1600980943.604591,50.000000,0.000000,4048.205078,4762.051270,4233.846191,4296.410156,3965.128174,4600.000000,3935.897461,3880.512939,4320.512695,4018.974365,4258.461426,4200.000000,4192.820313,4015.897461,0.000000,4.000000,,,,0.000000,4.000000,4.000000,4.000000,4.000000,4.000000,4.000000,4.000000,4.000000,4.000000,4.000000,2.000000,4.000000,4.000000,1.000000,58.333332
1600980943.612412,51.000000,0.000000,4047.179443,4762.051270,4233.846191,4300.000000,3951.281982,4593.846191,3926.666748,3865.128174,4305.128418,4004.102539,4254.358887,4190.769043,4184.615234,4014.358887,0.000000,4.000000,,,,0.000000,4.000000,4.000000,4.000000,4.000000,4.000000,4.000000,4.000000,4.000000,4.000000,4.000000,2.000000,4.000000,4.000000,1.000000,58.333332
1600980943.620133,52.000000,0.000000,4037.948730,4762.051270,4234.871582,4300.512695,3947.692383,4589.743652,3924.102539,3856.410156,4293.333496,4006.153809,4242.563965,4183.077148,4164.615234,4015.897461,0.000000,4.000000,,,,0.000000,4.000000,4.000000,4.000000,4.000000,4.000000,4.000000,4.000000,4.000000,4.000000,4.000000,2.000000,4.000000,4.000000,1.000000,58.333332
1600980943.627954,53.000000,0.000000,4032.820557,4775.897461,4231.282227,4302.051270,3965.128174,4589.743652,3931.281982,3869.230713,4296.410156,4021.025635,4242.563965,4186.666504,4164.102539,4017.435791,0.000000,4.000000,,,,0.000000,4.000000,4.000000,4.000000,4.000000,4.000000,4.000000,4.000000,4.000000,4.000000,4.000000,2.000000,4.000000,4.000000,1.000000,58.333332
1600980943.635675,54.000000,0.000000,4029.230713,4780.000000,4223.589844,4302.563965,3971.794922,4588.717773,3935.897461,3873.333252,4301.538574,4011.794922,4252.820313,4186.666504,4169.743652,4015.897461,0.000000,4.000000,,,,0.000000,4.000000,4.000000,4.000000,4.000000,4.000000,4.000000,4.000000,4.000000,4.000000,4.000000,2.000000,4.000000,4.000000,1.000000,58.333332
1600980943.643596,55.000000,0.000000,4017.435791,4760.512695,4209.743652,4293.333496,3956.923096,4586.666504,3935.384521,3868.205078,4309.230957,3996.923096,4251.794922,4174.871582,4156.922852,4011.281982,0.000000,4.000000,,,,0.000000,4.000000,4.000000,4.000000,4.000000,4.000000,4.000000,4.000000,4.000000,4.000000,4.000000,2.000000,4.000000,4.000000,1.000000,58.333332
1600980943.651417,56.000000,0.000000,3996.410156,4738.461426,4189.230957,4283.589844,3949.230713,4590.769043,3933.846191,3870.256348,4303.077148,4006.666748,4241.538574,4166.666504,4135.384766,4005.128174,0.000000,4.000000,,,,0.000000,4.000000,4.000000,4.000000,4.000000,4.000000,4.000000,4.000000,4.000000,4.000000,4.000000,2.000000,4.000000,4.000000,1.000000,58.333332
1600980943.659338,57.000000,0.000000,3987.692383,4728.205078,4181.538574,4283.589844,3957.948730,4595.897461,3940.000000,3868.205078,4292.307617,4006.666748,4243.589844,4168.205078,4126.153809,4002.564209,0.000000,4.000000,,,,0.000000,4.000000,4.000000,4.000000,4.000000,4.000000,4.000000,4.000000,4.000000,4.000000,4.000000,2.000000,4.000000,4.000000,1.000000,58.333332
1600980943.667159,58.000000,0.000000,3988.205078,4724.615234,4183.077148,4284.615234,3963.076904,4595.384766,3945.128174,3864.615479,4307.692383,3998.461426,4251.282227,4170.256348,4123.589844,4002.051270,0.000000,4.000000,,,,0.000000,4.000000,4.000000,4.000000,4.000000,4.000000,4.000000,4.000000,4.000000,4.000000,4.000000,2.000000,4.000000,4.000000,1.000000,58.333332
1600980943.675080,59.000000,0.000000,3977.948730,4717.436035,4176.922852,4281.025879,3963.076904,4603.589844,3941.025635,3879.487061,4320.512695,4021.025635,4249.230957,4170.256348,4114.871582,3996.410156,0.000000,4.000000,,,,0.000000,4.000000,4.000000,4.000000,4.000000,4.000000,4.000000,4.000000,4.000000,4.000000,4.000000,2.000000,4.000000,4.000000,1.000000,58.333332
1600980943.682901,60.000000,0.000000,3950.769287,4696.410156,4165.128418,4267.179688,3959.487061,4600.000000,3934.358887,3881.025635,4299.487305,4023.076904,4233.846191,4162.051270,4094.358887,3990.769287,0.000000,4.000000,,,,0.000000,4.000000,4.000000,4.000000,4.000000,4.000000,4.000000,4.000000,4.000000,4.000000,4.000000,2.000000,4.000000,4.000000,1.000000,58.333332
1600980943.690822,61.000000,0.000000,3938.461426,4691.794922,4173.846191,4268.205078,3967.692383,4588.717773,3940.512939,3870.769287,4305.641113,4001.025635,4235.384766,4162.051270,4086.666748,3991.794922,0.000000,4.000000,,,,0.000000,4.000000,4.000000,4.000000,4.000000,4.000000,4.000000,4.000000,4.000000,4.000000,4.000000,2.000000,4.000000,4.000000,1.000000,58.333332
1600980943.698643,62.000000,0.000000,3940.512939,4700.512695,4188.205078,4281.025879,3979.487061,4601.025879,3949.743652,3883.076904,4337.948730,4009.743652,4249.230957,4171.794922,4096.410156,3994.871826,0.000000,4.000000,,,,0.000000,4.000000,4.000000,4.000000,4.000000,4.000000,4.000000,4.000000,4.000000,4.000000,4.000000,2.000000,4.000000,4.000000,1.000000,58.333332
1600980943.706564,63.000000,0.000000,3927.692383,4689.230957,4178.974121,4275.384766,3972.820557,4613.846191,3944.615479,3892.307617,4332.820313,4021.538574,4244.615234,4164.102539,4094.358887,3987.692383,0.000000,4.000000,,,,0.000000,4.000000,4.000000,4.000000,4.000000,4.000000,4.000000,4.000000,4.000000,4.000000,4.000000,2.000000,4.000000,4.000000,1.000000,58.333332
1600980943.714385,64.000000,0.000000,3904.102539,4666.153809,4157.948730,4255.384766,3957.948730,4597.948730,3932.307617,3875.384521,4309.743652,3996.923096,4226.153809,4141.538574,4072.307617,3978.461426,401.000000,4.000000,,,,0.000000,4.000000,4.000000,4.000000,4.000000,4.000000,4.000000,4.000000,4.000000,4.000000,4.000000,2.000000,4.000000,4.000000,1.000000,58.333332
1600980943.722306,65.000000,0.000000,3901.025635,4663.589844,4156.410156,4255.384766,3957.948730,4598.461426,3936.923096,3877.948730,4316.410156,3997.435791,4228.717773,4140.512695,4066.666748,3978.974365,425.000000,4.000000,,,,0.000000,4.000000,4.000000,4.000000,4.000000,4.000000,4.000000,4.000000,4.000000,4.000000,4.000000,2.000000,4.000000,4.000000,1.000000,58.333332
1600980943.730127,66.000000,0.000000,3901.538574,4664.615234,4153.846191,4253.846191,3960.512939,4612.820313,3943.076904,3887.692383,4316.410156,4018.974365,4232.820313,4150.256348,4071.281982,3983.076904,439.000000,4.000000,,,,0.000000,4.000000,4.000000,4.000000,4.000000,4.000000,4.000000,4.000000,4.000000,4.000000,4.000000,2.000000,4.000000,4.000000,1.000000,58.333332
1600980943.737848,67.000000,0.000000,3896.923096,4665.641113,4149.743652,4247.692383,3966.153809,4604.102539,3943.589844,3880.000000,4312.307617,4011.794922,4223.077148,4152.820313,4068.205078,3981.025635,444.000000,4.000000,,,,0.000000,4.000000,4.000000,4.000000,4.000000,4.000000,4.000000,4.000000,4.000000,4.000000,4.000000,2.000000,4.000000,4.000000,1.000000,58.333332
1600980943.745669,68.000000,0.000000,3895.384521,4667.179688,4154.871582,4253.333496,3967.179443,4585.128418,3936.923096,3869.230713,4316.410156,3987.692383,4219.487305,4148.205078,4061.025635,3979.487061,459.000000,4.000000,,,,0.000000,4.000000,4.000000,4.000000,4.000000,4.000000,4.000000,4.000000,4.000000,4.000000,4.000000,2.000000,4.000000,4.000000,1.000000,58.333332
1600980943.753390,69.000000,0.000000,3895.897461,4661.025879,4154.871582,4257.948730,3955.897461,4588.717773,3932.820557,3867.179443,4313.333496,3976.923096,4223.077148,4138.461426,4055.897461,3977.435791,439.000000,4.000000,,,,0.000000,4.000000,4.000000,4.000000,4.000000,4.000000,4.000000,4.000000,4.000000,4.000000,4.000000,2.000000,4.000000,4.000000,1.000000,58.333332
1600980943.761211,70.000000,0.000000,3891.281982,4659.487305,4145.128418,4252.820313,3953.846191,4602.051270,3934.358887,3875.897461,4316.410156,3986.153809,4222.051270,4136.922852,4058.461426,3975.384521,436.000000,4.000000,,,,0.000000,4.000000,4.000000,4.000000,4.000000,4.000000,4.000000,4.000000,4.000000,4.000000,4.000000,2.000000,4.000000,4.000000,1.000000,58.333332
1600980943.768932,71.000000,0.000000,3880.512939,4657.948730,4138.461426,4245.128418,3961.538574,4598.461426,3933.333252,3877.435791,4316.922852,3989.230713,4216.410156,4140.000000,4052.307617,3972.820557,387.000000,4.000000,,,,0.000000,4.000000,4.000000,4.000000,4.000000,4.000000,4.000000,4.000000,4.000000,4.000000,4.000000,2.000000,4.000000,4.000000,1.000000,58.333332
1600980943.776753,72.000000,0.000000,3873.333252,4651.794922,4141.538574,4241.538574,3958.974365,4588.717773,3931.794922,3864.615479,4300.512695,3981.025635,4212.820313,4137.948730,4041.538574,3972.307617,388.000000,4.000000,,,,0.000000,4.000000,4.000000,4.000000,4.000000,4.000000,4.000000,4.000000,4.000000,4.000000,4.000000,2.000000,4.000000,4.000000,1.000000,58.333332
1600980943.784474,73.000000,0.000000,3876.410156,4652.820313,4147.692383,4242.051270,3953.846191,4593.333496,3937.435791,3861.538574,4294.358887,3978.974365,4214.871582,4139.487305,4045.641113,3972.820557,391.000000,4.000000,,,,0.000000,4.000000,4.000000,4.000000,4.000000,4.000000,4.000000,4.000000,4.000000,4.000000,4.000000,2.000000,4.000000,4.000000,1.000000,58.333332
1600980943.792295,74.000000,0.000000,3878.974365,4654.358887,4149.230957,4244.615234,3958.974365,4600.512695,3940.512939,3869.743652,4309.743652,3982.051270,4215.384766,4144.615234,4052.307617,3974.871826,424.000000,4.000000,,,,0.000000,4.000000,4.000000,4.000000,4.000000,4.000000,4.000000,4.000000,4.000000,4.000000,4.000000,2.000000,4.000000,4.000000,1.000000,58.333332
1600980943.800015,75.000000,0.000000,3878.461426,4648.205078,4150.256348,4246.153809,3963.076904,4591.794922,3934.871826,3865.128174,4314.358887,3977.948730,4214.358887,4146.153809,4050.256348,3977.435791,54.000000,4.000000,,,,0.000000,4.000000,4.000000,4.000000,4.000000,4.000000,4.000000,4.000000,4.000000,4.000000,4.000000,2.000000,4.000000,4.000000,1.000000,58.333332
1600980943.807836,76.000000,0.000000,3890.769287,4656.410156,4165.128418,4257.948730,3966.666748,4593.333496,3941.025635,3870.256348,4317.948730,3987.179443,4224.615234,4156.922852,4058.974365,3979.487061,273.000000,4.000000,,,,0.000000,4.000000,4.000000,4.000000,4.000000,4.000000,4.000000,4.000000,4.000000,4.000000,4.000000,2.000000,4.000000,4.000000,1.000000,58.333332
1600980943.815557,77.000000,0.000000,3898.461426,4660.000000,4174.358887,4261.025879,3960.000000,4600.512695,3947.179443,3887.692383,4318.461426,3995.384521,4227.179688,4166.153809,4061.538574,3980.512939,333.000000,4.000000,,,,0.000000,4.000000,4.000000,4.000000,4.000000,4.000000,4.000000,4.000000,4.000000,4.000000,4.000000,2.000000,4.000000,4.000000,1.000000,58.333332
1600980943.823378,78.000000,0.000000,3888.718018,4648.205078,4170.256348,4250.256348,3948.205078,4596.410156,3940.512939,3884.615479,4311.794922,3986.153809,4215.384766,4160.000000,4050.256348,3978.974365,424.000000,4.000000,,,,0.000000,4.000000,4.000000,4.000000,4.000000,4.000000,4.000000,4.000000,4.000000,4.000000,4.000000,2.000000,4.000000,4.000000,1.000000,58.333332
1600980943.831099,79.000000,0.000000,3881.025635,4644.102539,4167.692383,4246.666504,3948.718018,4590.256348,3933.846191,3869.230713,4310.769043,3975.384521,4214.358887,4154.871582,4050.769287,3977.435791,54.000000,4.000000,,,,0.000000,4.000000,4.000000,4.000000,4.000000,4.000000,4.000000,4.000000,4.000000,4.000000,4.000000,2.000000,4.000000,4.000000,1.000000,58.333332
1600980943.839020,80.000000,0.000000,3884.615479,4649.743652,4167.179688,4250.769043,3956.923096,4593.846191,3936.923096,3868.718018,4318.461426,3976.923096,4221.025879,4155.384766,4058.461426,3975.384521,273.000000,4.000000,,,,0.000000,4.000000,4.000000,4.000000,4.000000,4.000000,4.000000,4.000000,4.000000,4.000000,4.000000,2.000000,4.000000,4.000000,1.000000,58.333332
1600980943.846841,81.000000,0.000000,3868.205078,4633.333496,4156.410156,4238.461426,3945.128174,4587.179688,3931.794922,3870.256348,4307.179688,3980.512939,4209.743652,4145.641113,4042.051270,3972.820557,333.000000,4.000000,,,,0.000000,4.000000,4.000000,4.000000,4.000000,4.000000,4.000000,4.000000,4.000000,4.000000,4.000000,2.000000,4.000000,4.000000,1.000000,58.333332
1600980943.854762,82.000000,0.000000,3852.307617,4623.077148,4151.794922,4229.230957,3936.410156,4579.487305,3928.718018,3872.820557,4287.692383,3981.025635,4199.487305,4138.461426,4029.743652,3969.743652,424.000000,4.000000,,,,0.000000,4.000000,4.000000,4.000000,4.000000,4.000000,4.000000,4.000000,4.000000,4.000000,4.000000,2.000000,4.000000,4.000000,1.000000,58.333332
1600980943.862583,83.000000,0.000000,3869.743652,4641.538574,4157.436035,4240.000000,3948.205078,4587.179688,3937.435791,3872.820557,4293.846191,3974.871826,4206.666504,4142.051270,4040.000000,3969.743652,54.000000,4.000000,,,,0.000000,4.000000,4.000000,4.000000,4.000000,4.000000,4.000000,4.000000,4.000000,4.000000,4.000000,2.000000,4.000000,4.000000,1.000000,58.333332
1600980943.870504,84.000000,0.000000,3890.769287,4656.922852,4162.563965,4252.820313,3961.025635,4597.436035,3945.128174,3871.794922,4318.974121,3978.974365,4215.897461,4146.153809,4054.871826,3970.769287,273.000000,4.000000,,,,0.000000,4.000000,4.000000,4.000000,4.000000,4.000000,4.000000,4.000000,4.000000,4.000000,4.000000,2.000000,4.000000,4.000000,1.000000,58.333332
1600980943.878326,85.000000,0.000000,3883.589844,4650.256348,4157.948730,4249.230957,3966.153809,4596.410156,3942.051270,3876.410156,4321.538574,3993.846191,4217.436035,4144.615234,4057.435791,3971.794922,333.000000,4.000000,,,,0.000000,4.000000,4.000000,4.000000,4.000000,4.000000,4.000000,4.000000,4.000000,4.000000,4.000000,2.000000,4.000000,4.000000,1.000000,58.333332
1600980943.886246,86.000000,0.000000,3865.128174,4633.333496,4143.077148,4236.922852,3967.179443,4588.717773,3935.897461,3876.410156,4304.102539,3991.794922,4208.717773,4136.922852,4047.692383,3970.769287,424.000000,4.000000,,,,0.000000,4.000000,4.000000,4.000000,4.000000,4.000000,4.000000,4.000000,4.000000,4.000000,4.000000,2.000000,4.000000,4.000000,1.000000,58.333332
1600980943.894068,87.000000,0.000000,3857.948730,4621.538574,4130.256348,4225.641113,3958.974365,4585.641113,3929.743652,3861.538574,4294.871582,3977.948730,4200.512695,4128.205078,4036.923096,3968.205078,54.000000,4.000000,,,,0.000000,4.000000,4.000000,4.000000,4.000000,4.000000,4.000000,4.000000,4.000000,4.000000,4.000000,2.000000,4.000000,4.000000,1.000000,58.333332
1600980943.901789,88.000000,0.000000,3860.512939,4620.000000,4131.282227,4225.128418,3949.230713,4590.769043,3928.718018,3853.846191,4292.820313,3978.461426,4206.666504,4130.769043,4036.923096,3967.179443,273.000000,4.000000,,,,0.000000,4.000000,4.000000,4.000000,4.000000,4.000000,4.000000,4.000000,4.000000,4.000000,4.000000,2.000000,4.000000,4.000000,1.000000,58.333332
1600980943.909610,89.000000,0.000000,3871.281982,4634.358887,4145.641113,4236.410156,3960.000000,4599.487305,3943.076904,3874.871826,4302.563965,3993.333252,4218.461426,4145.128418,4049.743652,3971.281982,333.000000,4.000000,,,,0.000000,4.000000,4.000000,4.000000,4.000000,4.000000,4.000000,4.000000,4.000000,4.000000,4.000000,2.000000,4.000000,4.000000,1.000000,58.333332
1600980943.917331,90.000000,0.000000,3876.923096,4644.615234,4153.846191,4241.538574,3970.256348,4601.025879,3950.769287,3887.692383,4318.461426,3996.923096,4213.846191,4151.282227,4053.846191,3973.333252,424.000000,4.000000,,,,0.000000,4.000000,4.000000,4.000000,4.000000,4.000000,4.000000,4.000000,4.000000,4.000000,4.000000,2.000000,4.000000,4.000000,1.000000,58.333332
1600980943.925152,91.000000,0.000000,3869.743652,4638.974121,4144.102539,4233.846191,3963.076904,4595.384766,3943.076904,3876.410156,4317.948730,3990.769287,4204.102539,4143.589844,4045.128174,3970.769287,54.000000,4.000000,,,,0.000000,4.000000,4.000000,4.000000,4.000000,4.000000,4.000000,4.000000,4.000000,4.000000,4.000000,2.000000,4.000000,4.000000,1.000000,58.333332
1600980943.932873,92.000000,0.000000,3864.102539,4627.179688,4136.922852,4228.717773,3955.384521,4590.256348,3941.538574,3873.333252,4304.102539,3991.281982,4207.179688,4137.436035,4041.538574,3970.769287,273.000000,4.000000,,,,0.000000,4.000000,4.000000,4.000000,4.000000,4.000000,4.000000,4.000000,4.000000,4.000000,4.000000,2.000000,4.000000,4.000000,1.000000,58.333332
1600980943.940694,93.000000,0.000000,3876.410156,4632.820313,4155.897461,4240.512695,3967.179443,4598.461426,3957.435791,3896.923096,4318.974121,4005.641113,4222.563965,4150.256348,4057.948730,3974.358887,333.000000,4.000000,,,,0.000000,4.000000,4.000000,4.000000,4.000000,4.000000,4.000000,4.000000,4.000000,4.000000,4.000000,2.000000,4.000000,4.000000,1.000000,58.333332
1600980943.948415,94.000000,0.000000,3887.692383,4643.077148,4169.743652,4246.666504,3975.384521,4607.179688,3958.974365,3909.743652,4338.974121,4013.846191,4230.256348,4161.538574,4070.256348,3978.461426,424.000000,4.000000,,,,0.000000,4.000000,4.000000,4.000000,4.000000,4.000000,4.000000,4.000000,4.000000,4.000000,4.000000,2.000000,4.000000,4.000000,1.000000,58.333332
1600980943.956236,95.000000,0.000000,3884.102539,4638.461426,4157.436035,4240.512695,3966.153809,4604.102539,3945.128174,3892.820557,4319.487305,4007.179443,4224.615234,4156.410156,4063.589844,3977.948730,54.000000,4.000000,,,,0.000000,4.000000,4.000000,4.000000,4.000000,4.000000,4.000000,4.000000,4.000000,4.000000,4.000000,2.000000,4.000000,4.000000,1.000000,58.333332
1600980943.963957,96.000000,0.000000,3880.000000,4631.282227,4148.205078,4237.436035,3957.948730,4593.333496,3941.538574,3875.897461,4298.461426,3998.461426,4221.025879,4150.769043,4053.333252,3977.435791,273.000000,4.000000,,,,0.000000,4.000000,4.000000,4.000000,4.000000,4.000000,4.000000,4.000000,4.000000,4.000000,4.000000,2.000000,4.000000,4.000000,1.000000,58.333332
1600980943.971778,97.000000,0.000000,3888.205078,4640.512695,4152.820313,4242.563965,3967.692383,4596.410156,3948.718018,3880.000000,4316.922852,4002.051270,4226.153809,4158.974121,4060.000000,3974.358887,333.000000,4.000000,,,,0.000000,4.000000,4.000000,4.000000,4.000000,4.000000,4.000000,4.000000,4.000000,4.000000,4.000000,2.000000,4.000000,4.000000,1.000000,58.333332
1600980943.979499,98.000000,0.000000,3889.743652,4642.051270,4148.717773,4244.102539,3972.820557,4602.563965,3949.743652,3886.153809,4330.256348,4008.205078,4226.666504,4165.128418,4066.666748,3975.384521,424.000000,4.000000,,,,0.000000,4.000000,4.000000,4.000000,4.000000,4.000000,4.000000,4.000000,4.000000,4.000000,4.000000,2.000000,4.000000,4.000000,1.000000,58.333332
1600980943.987320,99.000000,0.000000,3888.205078,4635.897461,4145.641113,4247.692383,3968.718018,4602.563965,3948.205078,3878.974365,4316.410156,4006.666748,4225.641113,4163.589844,4064.615479,3978.974365,54.000000,4.000000,,,,0.000000,4.000000,4.000000,4.000000,4.000000,4.000000,4.000000,4.000000,4.000000,4.000000,4.000000,2.000000,4.000000,4.000000,1.000000,58.333332
1600980943.995041,100.000000,0.000000,3887.179443,4634.871582,4148.205078,4246.666504,3970.256348,4597.436035,3942.564209,3870.769287,4310.256348,3997.435791,4220.512695,4156.922852,4055.897461,3978.461426,273.000000,4.000000,,,,0.000000,4.000000,4.000000,4.000000,4.000000,4.000000,4.000000,4.000000,4.000000,4.000000,4.000000,2.000000,4.000000,4.000000,1.000000,58.333332
1600980944.002962,101.000000,0.000000,3883.589844,4633.846191,4146.666504,4239.487305,3972.307617,4592.307617,3936.923096,3877.435791,4307.179688,4000.000000,4212.307617,4149.743652,4048.205078,3974.358887,333.000000,4.000000,,,,0.000000,4.000000,4.000000,4.000000,4.000000,4.000000,4.000000,4.000000,4.000000,4.000000,4.000000,2.000000,4.000000,4.000000,1.000000,58.333332
1600980944.010783,102.000000,0.000000,3882.564209,4633.846191,4145.641113,4242.051270,3969.230713,4592.820313,3944.102539,3888.205078,4302.051270,4008.718018,4211.794922,4148.717773,4050.769287,3974.358887,424.000000,4.000000,,,,0.000000,4.000000,4.000000,4.000000,4.000000,4.000000,4.000000,4.000000,4.000000,4.000000,4.000000,2.000000,4.000000,4.000000,1.000000,58.333332
1600980944.018704,103.000000,0.000000,3884.615479,4641.025879,4144.615234,4247.179688,3972.820557,4603.077148,3955.384521,3888.205078,4315.384766,4002.564209,4217.436035,4150.256348,4056.410156,3973.846191,54.000000,4.000000,,,,0.000000,4.000000,4.000000,4.000000,4.000000,4.000000,4.000000,4.000000,4.000000,4.000000,4.000000,2.000000,4.000000,4.000000,1.000000,58.333332
1600980944.026525,104.000000,0.000000,3868.718018,4631.282227,4130.769043,4234.358887,3970.769287,4602.563965,3947.692383,3876.923096,4314.871582,3984.102539,4206.153809,4139.487305,4042.051270,3973.333252,273.000000,4.000000,,,,0.000000,4.000000,4.000000,4.000000,4.000000,4.000000,4.000000,4.000000,4.000000,4.000000,4.000000,2.000000,4.000000,4.000000,1.000000,58.333332
1600980944.034446,105.000000,0.000000,3851.794922,4614.358887,4121.025879,4223.077148,3959.487061,4590.256348,3935.384521,3872.820557,4300.512695,3981.538574,4192.307617,4132.307617,4024.615479,3971.281982,333.000000,4.000000,,,,0.000000,4.000000,4.000000,4.000000,4.000000,4.000000,4.000000,4.000000,4.000000,4.000000,4.000000,2.000000,4.000000,4.000000,1.000000,58.333332
1600980944.042267,106.000000,0.000000,3865.128174,4622.563965,4133.846191,4234.358887,3962.051270,4600.512695,3944.615479,3891.794922,4314.871582,4005.641113,4206.666504,4145.128418,4040.000000,3970.256348,424.000000,4.000000,,,,0.000000,4.000000,4.000000,4.000000,4.000000,4.000000,4.000000,4.000000,4.000000,4.000000,4.000000,2.000000,4.000000,4.000000,1.000000,58.333332
1600980944.050188,107.000000,0.000000,3876.410156,4633.333496,4140.000000,4242.563965,3969.743652,4614.358887,3952.307617,3901.025635,4326.153809,4016.923096,4217.436035,4151.282227,4050.769287,3969.230713,54.000000,4.000000,,,,0.000000,4.000000,4.000000,4.000000,4.000000,4.000000,4.000000,4.000000,4.000000,4.000000,4.000000,2.000000,4.000000,4.000000,1.000000,58.333332
1600980944.058009,108.000000,0.000000,3872.820557,4632.820313,4133.846191,4241.025879,3975.384521,4607.692383,3946.666748,3890.769287,4314.358887,4003.589844,4207.179688,4144.102539,4040.512939,3970.769287,273.000000,4.000000,,,,0.000000,4.000000,4.000000,4.000000,4.000000,4.000000,4.000000,4.000000,4.000000,4.000000,4.000000,2.000000,4.000000,4.000000,1.000000,58.333332
1600980944.065930,109.000000,0.000000,3869.230713,4630.256348,4130.769043,4238.974121,3976.923096,4601.025879,3944.102539,3880.512939,4309.743652,3990.769287,4200.512695,4140.512695,4037.435791,3970.769287,333.000000,4.000000,,,,0.000000,4.000000,4.000000,4.000000,4.000000,4.000000,4.000000,4.000000,4.000000,4.000000,4.000000,2.000000,4.000000,4.000000,1.000000,58.333332
1600980944.073751,110.000000,0.000000,3861.025635,4626.666504,4127.179688,4236.922852,3969.743652,4603.589844,3946.153809,3877.435791,4311.794922,3997.948730,4205.128418,4140.512695,4042.564209,3969.230713,424.000000,4.000000,,,,0.000000,4.000000,4.000000,4.000000,4.000000,4.000000,4.000000,4.000000,4.000000,4.000000,4.000000,2.000000,4.000000,4.000000,1.000000,58.333332
1600980944.081672,111.000000,0.000000,3851.794922,4622.563965,4123.589844,4235.384766,3965.641113,4598.461426,3945.641113,3876.410156,4305.641113,4007.692383,4207.692383,4141.538574,4045.128174,3970.769287,54.000000,4.000000,,,,0.000000,4.000000,4.000000,4.000000,4.000000,4.000000,4.000000,4.000000,4.000000,4.000000,4.000000,2.000000,4.000000,4.000000,1.000000,58.333332
1600980944.089494,112.000000,0.000000,3865.641113,4635.897461,4136.922852,4247.179688,3983.076904,4603.589844,3954.871826,3892.820557,4319.487305,4019.487061,4218.461426,4155.897461,4060.000000,3973.333252,273.000000,4.000000,,,,0.000000,4.000000,4.000000,4.000000,4.000000,4.000000,4.000000,4.000000,4.000000,4.000000,4.000000,2.000000,4.000000,4.000000,1.000000,58.333332
1600980944.097415,113.000000,0.000000,3880.000000,4648.205078,4149.230957,4255.897461,3991.281982,4613.333496,3963.076904,3907.179443,4333.846191,4030.256348,4229.743652,4166.153809,4069.743652,3976.923096,333.000000,4.000000,,,,0.000000,4.000000,4.000000,4.000000,4.000000,4.000000,4.000000,4.000000,4.000000,4.000000,4.000000,2.000000,4.000000,4.000000,1.000000,58.333332
1600980944.105236,114.000000,0.000000,3878.974365,4644.615234,4146.666504,4256.922852,3983.589844,4616.410156,3962.564209,3901.025635,4329.743652,4028.718018,4226.666504,4162.563965,4066.153809,3976.410156,424.000000,4.000000,,,,0.000000,4.000000,4.000000,4.000000,4.000000,4.000000,4.000000,4.000000,4.000000,4.000000,4.000000,2.000000,4.000000,4.000000,1.000000,58.333332
1600980944.112957,115.000000,0.000000,3874.871826,4635.384766,4140.000000,4253.846191,3980.512939,4614.358887,3955.897461,3889.230713,4325.641113,4017.948730,4221.025879,4156.922852,4063.076904,3974.871826,54.000000,4.000000,,,,0.000000,4.000000,4.000000,4.000000,4.000000,4.000000,4.000000,4.000000,4.000000,4.000000,4.000000,2.000000,4.000000,4.000000,1.000000,58.333332
1600980944.120777,116.000000,0.000000,3867.692383,4636.922852,4135.897461,4248.205078,3983.076904,4606.666504,3953.846191,3893.333252,4330.256348,4021.025635,4223.589844,4152.307617,4063.076904,3971.794922,273.000000,4.000000,,,,0.000000,4.000000,4.000000,4.000000,4.000000,4.000000,4.000000,4.000000,4.000000,4.000000,4.000000,2.000000,4.000000,4.000000,1.000000,58.333332
1600980944.128498,117.000000,0.000000,3856.410156,4642.563965,4128.717773,4240.512695,3982.564209,4595.897461,3952.307617,3893.846191,4323.589844,4032.307617,4220.000000,4144.615234,4055.897461,3970.256348,333.000000,4.000000,,,,0.000000,4.000000,4.000000,4.000000,4.000000,4.000000,4.000000,4.000000,4.000000,4.000000,4.000000,2.000000,4.000000,4.000000,1.000000,58.333332
1600980944.136319,118.000000,0.000000,3855.384521,4637.948730,4124.615234,4239.487305,3982.051270,4596.410156,3947.179443,3884.615479,4311.794922,4026.153809,4210.256348,4143.589844,4049.743652,3969.743652,424.000000,4.000000,,,,0.000000,4.000000,4.000000,4.000000,4.000000,4.000000,4.000000,4.000000,4.000000,4.000000,4.000000,2.000000,4.000000,4.000000,1.000000,58.333332
1600980944.144040,119.000000,0.000000,3861.025635,4632.307617,4128.205078,4245.128418,3979.487061,4602.563965,3946.153809,3883.076904,4313.846191,4012.820557,4205.641113,4151.794922,4050.769287,3973.333252,54.000000,4.000000,,,,0.000000,4.000000,4.000000,4.000000,4.000000,4.000000,4.000000,4.000000,4.000000,4.000000,4.000000,2.000000,4.000000,4.000000,1.000000,58.333332
1600980944.151861,120.000000,0.000000,3859.487061,4635.384766,4131.794922,4245.641113,3978.974365,4602.563965,3947.692383,3880.512939,4316.410156,4011.281982,4205.128418,4151.794922,4053.333252,3973.846191,273.000000,4.000000,,,,0.000000,4.000000,4.000000,4.000000,4.000000,4.000000,4.000000,4.000000,4.000000,4.000000,4.000000,2.000000,4.000000,4.000000,1.000000,58.333332
1600980944.159582,121.000000,0.000000,3855.384521,4632.307617,4128.717773,4238.461426,3980.000000,4602.051270,3942.564209,3866.666748,4304.102539,4010.256348,4205.128418,4143.077148,4049.743652,3969.230713,333.000000,4.000000,,,,0.000000,4.000000,4.000000,4.000000,4.000000,4.000000,4.000000,4.000000,4.000000,4.000000,4.000000,2.000000,4.000000,4.000000,1.000000,58.333332
1600980944.167403,122.000000,0.000000,3857.435791,4625.128418,4129.743652,4236.922852,3977.948730,4603.589844,3939.487061,3865.641113,4300.512695,4006.666748,4207.179688,4143.077148,4051.281982,3970.256348,424.000000,4.000000,,,,0.000000,4.000000,4.000000,4.000000,4.000000,4.000000,4.000000,4.000000,4.000000,4.000000,4.000000,2.000000,4.000000,4.000000,1.000000,58.333332
1600980944.175124,123.000000,0.000000,3864.102539,4628.717773,4140.000000,4242.051270,3976.410156,4606.666504,3949.743652,3886.153809,4317.948730,4016.923096,4215.897461,4151.794922,4061.538574,3977.948730,54.000000,4.000000,,,,0.000000,4.000000,4.000000,4.000000,4.000000,4.000000,4.000000,4.000000,4.000000,4.000000,4.000000,2.000000,4.000000,4.000000,1.000000,58.333332
1600980944.183045,124.000000,0.000000,3859.487061,4629.743652,4143.589844,4237.436035,3976.410156,4602.051270,3953.846191,3894.871826,4323.589844,4025.641113,4216.922852,4150.769043,4058.461426,3976.923096,273.000000,4.000000,,,,0.000000,4.000000,4.000000,4.000000,4.000000,4.000000,4.000000,4.000000,4.000000,4.000000,4.000000,2.000000,4.000000,4.000000,1.000000,58.333332
1600980944.190866,125.000000,0.000000,3862.051270,4634.358887,4152.820313,4240.512695,3984.102539,4604.102539,3957.948730,3899.487061,4326.153809,4028.718018,4220.000000,4154.871582,4062.051270,3973.846191,333.000000,4.000000,,,,0.000000,4.000000,4.000000,4.000000,4.000000,4.000000,4.000000,4.000000,4.000000,4.000000,4.000000,2.000000,4.000000,4.000000,1.000000,58.333332
1600980944.198787,126.000000,0.000000,3870.256348,4638.974121,4163.077148,4248.205078,3990.769287,4610.769043,3962.051270,3902.051270,4332.307617,4033.333252,4225.128418,4162.563965,4071.794922,3977.435791,424.000000,4.000000,,,,0.000000,4.000000,4.000000,4.000000,4.000000,4.000000,4.000000,4.000000,4.000000,4.000000,4.000000,2.000000,4.000000,4.000000,1.000000,58.333332
1600980944.206608,127.000000,0.000000,3867.179443,4633.846191,4157.948730,4243.077148,3986.153809,4604.615234,3949.230713,3891.281982,4324.615234,4028.205078,4223.077148,4156.410156,4063.589844,3976.410156,54.000000,4.000000,,,,0.000000,4.000000,4.000000,4.000000,4.000000,4.000000,4.000000,4.000000,4.000000,4.000000,4.000000,2.000000,4.000000,4.000000,1.000000,58.333332
1600980944.214529,128.000000,0.000000,3862.051270,4628.717773,4154.358887,4237.436035,3976.923096,4595.384766,3936.923096,3879.487061,4314.871582,4019.487061,4222.563965,4150.769043,4055.384521,3973.846191,273.000000,4.000000,,,,0.000000,4.000000,4.000000,4.000000,4.000000,4.000000,4.000000,4.000000,4.000000,4.000000,4.000000,2.000000,4.000000,4.000000,1.000000,58.333332
1600980944.222350,0.000000,0.000000,3875.897461,4637.948730,4170.256348,4249.743652,3982.564209,4602.051270,3951.794922,3886.153809,4324.102539,4033.333252,4227.179688,4160.000000,4070.769287,3975.897461,402.000000,4.000000,,,,0.000000,4.000000,4.000000,4.000000,4.000000,4.000000,4.000000,4.000000,4.000000,4.000000,4.000000,2.000000,4.000000,4.000000,1.000000,58.333332
1600980944.230271,1.000000,0.000000,3881.025635,4642.051270,4174.871582,4253.846191,3985.641113,4603.589844,3957.435791,3890.769287,4318.974121,4036.923096,4224.102539,4161.025879,4073.333252,3977.948730,427.000000,4.000000,,,,0.000000,4.000000,4.000000,4.000000,4.000000,4.000000,4.000000,4.000000,4.000000,4.000000,4.000000,2.000000,4.000000,4.000000,1.000000,58.333332
1600980944.238092,2.000000,0.000000,3873.333252,4637.948730,4165.641113,4247.179688,3980.512939,4600.000000,3946.153809,3884.615479,4305.128418,4019.487061,4220.512695,4155.897461,4063.589844,3973.846191,440.000000,4.000000,,,,0.000000,4.000000,4.000000,4.000000,4.000000,4.000000,4.000000,4.000000,4.000000,4.000000,4.000000,2.000000,4.000000,4.000000,1.000000,58.333332
1600980944.246013,3.000000,0.000000,3874.358887,4638.461426,4169.743652,4248.205078,3979.487061,4608.717773,3950.256348,3881.025635,4309.743652,4012.307617,4222.051270,4160.512695,4064.615479,3973.333252,446.000000,4.000000,,,,0.000000,4.000000,4.000000,4.000000,4.000000,4.000000,4.000000,4.000000,4.000000,4.000000,4.000000,2.000000,4.000000,4.000000,1.000000,58.333332
1600980944.253835,4.000000,0.000000,3880.512939,4644.102539,4176.410156,4255.897461,3989.743652,4617.948730,3961.025635,3885.641113,4320.512695,4020.512939,4220.000000,4163.589844,4066.666748,3975.384521,462.000000,4.000000,,,,0.000000,4.000000,4.000000,4.000000,4.000000,4.000000,4.000000,4.000000,4.000000,4.000000,4.000000,2.000000,4.000000,4.000000,1.000000,58.333332
1600980944.261556,5.000000,0.000000,3866.666748,4632.820313,4165.128418,4248.205078,3993.333252,4608.717773,3952.307617,3886.666748,4316.922852,4015.897461,4211.794922,4152.307617,4054.358887,3974.871826,439.000000,4.000000,,,,0.000000,4.000000,4.000000,4.000000,4.000000,4.000000,4.000000,4.000000,4.000000,4.000000,4.000000,2.000000,4.000000,4.000000,1.000000,58.333332
1600980944.269377,6.000000,0.000000,3853.846191,4616.922852,4158.461426,4235.897461,3986.666748,4605.641113,3947.692383,3889.230713,4313.333496,4008.718018,4210.769043,4147.179688,4048.205078,3970.256348,436.000000,4.000000,,,,0.000000,4.000000,4.000000,4.000000,4.000000,4.000000,4.000000,4.000000,4.000000,4.000000,4.000000,2.000000,4.000000,4.000000,1.000000,58.333332
1600980944.277098,7.000000,0.000000,3866.153809,4623.077148,4168.205078,4238.974121,3986.666748,4614.358887,3955.897461,3894.871826,4316.922852,4018.974365,4215.897461,4153.333496,4055.897461,3968.718018,388.000000,4.000000,,,,0.000000,4.000000,4.000000,4.000000,4.000000,4.000000,4.000000,4.000000,4.000000,4.000000,4.000000,2.000000,4.000000,4.000000,1.000000,58.333332
1600980944.284919,8.000000,0.000000,3877.435791,4631.282227,4169.743652,4248.205078,3985.641113,4611.794922,3957.435791,3896.410156,4321.025879,4028.205078,4217.436035,4153.333496,4061.025635,3972.820557,386.000000,4.000000,,,,0.000000,4.000000,4.000000,4.000000,4.000000,4.000000,4.000000,4.000000,4.000000,4.000000,4.000000,2.000000,4.000000,4.000000,1.000000,58.333332
1600980944.292640,9.000000,0.000000,3878.461426,4629.230957,4168.205078,4252.307617,3985.641113,4606.666504,3957.435791,3901.025635,4328.205078,4034.358887,4218.974121,4157.948730,4065.128174,3976.410156,393.000000,4.000000,,,,0.000000,4.000000,4.000000,4.000000,4.000000,4.000000,4.000000,4.000000,4.000000,4.000000,4.000000,2.000000,4.000000,4.000000,1.000000,58.333332
1600980944.300461,10.000000,0.000000,3875.897461,4627.692383,4165.641113,4247.692383,3985.128174,4607.179688,3954.358887,3895.384521,4323.589844,4031.794922,4218.461426,4162.051270,4063.589844,3974.871826,426.000000,4.000000,,,,0.000000,4.000000,4.000000,4.000000,4.000000,4.000000,4.000000,4.000000,4.000000,4.000000,4.000000,2.000000,4.000000,4.000000,1.000000,58.333332
1600980944.308182,11.000000,0.000000,3872.307617,4626.153809,4154.871582,4242.051270,3979.487061,4600.512695,3943.589844,3878.974365,4310.256348,4015.897461,4214.358887,4153.333496,4053.846191,3972.307617,52.000000,4.000000,,,,0.000000,4.000000,4.000000,4.000000,4.000000,4.000000,4.000000,4.000000,4.000000,4.000000,4.000000,2.000000,4.000000,4.000000,1.000000,58.333332
1600980944.316003,12.000000,0.000000,3873.846191,4622.051270,4150.769043,4243.589844,3974.358887,4591.282227,3935.897461,3875.897461,4307.179688,4008.205078,4211.282227,4151.282227,4049.230713,3973.333252,273.000000,4.000000,,,,0.000000,4.000000,4.000000,4.000000,4.000000,4.000000,4.000000,4.000000,4.000000,4.000000,4.000000,2.000000,4.000000,4.000000,1.000000,58.333332
1600980944.323724,13.000000,0.000000,3882.051270,4627.692383,4161.025879,4250.769043,3980.000000,4604.102539,3943.589844,3885.128174,4313.846191,4025.641113,4218.461426,4165.641113,4058.974365,3974.871826,331.000000,4.000000,,,,0.000000,4.000000,4.000000,4.000000,4.000000,4.000000,4.000000,4.000000,4.000000,4.000000,4.000000,2.000000,4.000000,4.000000,1.000000,58.333332
1600980944.331544,14.000000,0.000000,3871.281982,4623.589844,4156.410156,4246.153809,3981.538574,4607.692383,3944.102539,3873.846191,4303.077148,4024.102539,4217.436035,4163.589844,4058.974365,3975.897461,426.000000,4.000000,,,,0.000000,4.000000,4.000000,4.000000,4.000000,4.000000,4.000000,4.000000,4.000000,4.000000,4.000000,2.000000,4.000000,4.000000,1.000000,58.333332
1600980944.339265,15.000000,0.000000,3861.025635,4618.461426,4150.256348,4243.077148,3985.641113,4597.436035,3944.615479,3867.179443,4304.102539,4012.820557,4211.282227,4155.384766,4057.948730,3975.897461,52.000000,4.000000,,,,0.000000,4.000000,4.000000,4.000000,4.000000,4.000000,4.000000,4.000000,4.000000,4.000000,4.000000,2.000000,4.000000,4.000000,1.000000,58.333332
1600980944.347086,16.000000,0.000000,3870.769287,4624.615234,4155.384766,4249.743652,3994.358887,4600.000000,3950.256348,3882.564209,4319.487305,4032.820557,4215.384766,4162.563965,4066.666748,3978.974365,0.000000,4.000000,,,,0.000000,4.000000,4.000000,4.000000,4.000000,4.000000,4.000000,4.000000,4.000000,4.000000,4.000000,2.000000,4.000000,4.000000,1.000000,58.333332
1600980944.354807,17.000000,0.000000,3877.948730,4631.282227,4154.358887,4249.743652,3995.897461,4613.333496,3955.897461,3893.333252,4318.974121,4043.589844,4220.000000,4169.743652,4070.769287,3978.974365,0.000000,4.000000,,,,0.000000,4.000000,4.000000,4.000000,4.000000,4.000000,4.000000,4.000000,4.000000,4.000000,4.000000,2.000000,4.000000,4.000000,1.000000,58.333332
1600980944.362628,18.000000,0.000000,3873.846191,4630.256348,4149.743652,4244.615234,3991.281982,4615.384766,3953.846191,3887.692383,4321.538574,4023.076904,4221.538574,4168.205078,4067.692383,3978.974365,0.000000,4.000000,,,,0.000000,4.000000,4.000000,4.000000,4.000000,4.000000,4.000000,4.000000,4.000000,4.000000,4.000000,2.000000,4.000000,4.000000,1.000000,58.333332
1600980944.370349,19.000000,0.000000,3874.871826,4626.153809,4151.794922,4245.128418,3990.769287,4608.717773,3949.230713,3885.128174,4326.153809,4026.153809,4226.666504,4167.692383,4069.230713,3978.461426,0.000000,4.000000,,,,0.000000,4.000000,4.000000,4.000000,4.000000,4.000000,4.000000,4.000000,4.000000,4.000000,4.000000,2.000000,4.000000,4.000000,1.000000,58.333332
1600980944.378270,20.000000,0.000000,3876.410156,4625.128418,4153.333496,4247.692383,3990.256348,4606.666504,3950.256348,3889.743652,4314.871582,4046.666748,4228.717773,4171.282227,4069.743652,3978.461426,0.000000,4.000000,,,,0.000000,4.000000,4.000000,4.000000,4.000000,4.000000,4.000000,4.000000,4.000000,4.000000,4.000000,2.000000,4.000000,4.000000,1.000000,58.333332
1600980944.386092,21.000000,0.000000,3883.076904,4637.948730,4158.461426,4253.333496,3996.410156,4614.358887,3958.974365,3897.948730,4320.000000,4043.076904,4228.205078,4176.922852,4075.897461,3978.461426,0.000000,4.000000,,,,0.000000,4.000000,4.000000,4.000000,4.000000,4.000000,4.000000,4.000000,4.000000,4.000000,4.000000,2.000000,4.000000,4.000000,1.000000,58.333332
1600980944.394012,22.000000,0.000000,3891.794922,4643.589844,4161.538574,4255.897461,4000.000000,4620.000000,3961.025635,3898.461426,4340.000000,4034.358887,4229.743652,4178.461426,4082.051270,3981.025635,0.000000,4.000000,,,,0.000000,4.000000,4.000000,4.000000,4.000000,4.000000,4.000000,4.000000,4.000000,4.000000,4.000000,2.000000,4.000000,4.000000,1.000000,58.333332
1600980944.401834,23.000000,0.000000,3885.128174,4628.205078,4152.820313,4246.666504,3990.256348,4614.358887,3952.820557,3887.692383,4328.205078,4037.435791,4225.128418,4171.282227,4073.333252,3980.512939,0.000000,4.000000,,,,0.000000,4.000000,4.000000,4.000000,4.000000,4.000000,4.000000,4.000000,4.000000,4.000000,4.000000,2.000000,4.000000,4.000000,1.000000,58.333332
1600980944.409755,24.000000,0.000000,3877.948730,4627.692383,4151.282227,4243.077148,3987.692383,4613.333496,3954.358887,3883.076904,4313.333496,4036.923096,4219.487305,4167.692383,4066.666748,3978.974365,0.000000,4.000000,,,,0.000000,4.000000,4.000000,4.000000,4.000000,4.000000,4.000000,4.000000,4.000000,4.000000,4.000000,2.000000,4.000000,4.000000,1.000000,58.333332
1600980944.417576,25.000000,0.000000,3877.948730,4638.461426,4151.282227,4247.692383,3995.384521,4616.410156,3953.333252,3880.512939,4315.384766,4025.641113,4216.922852,4160.000000,4064.102539,3976.410156,0.000000,4.000000,,,,0.000000,4.000000,4.000000,4.000000,4.000000,4.000000,4.000000,4.000000,4.000000,4.000000,4.000000,2.000000,4.000000,4.000000,1.000000,58.333332
1600980944.425497,26.000000,0.000000,3874.358887,4632.820313,4140.000000,4246.153809,3997.948730,4606.666504,3945.128174,3876.923096,4312.820313,4023.076904,4215.897461,4149.230957,4057.948730,3972.820557,0.000000,4.000000,,,,0.000000,4.000000,4.000000,4.000000,4.000000,4.000000,4.000000,4.000000,4.000000,4.000000,4.000000,2.000000,4.000000,4.000000,1.000000,58.333332
1600980944.433318,27.000000,0.000000,3868.718018,4625.128418,4139.487305,4244.102539,3991.794922,4601.538574,3951.794922,3887.692383,4315.384766,4033.333252,4216.410156,4153.333496,4058.974365,3974.871826,0.000000,4.000000,,,,0.000000,4.000000,4.000000,4.000000,4.000000,4.000000,4.000000,4.000000,4.000000,4.000000,4.000000,2.000000,4.000000,4.000000,1.000000,58.333332
1600980944.441239,28.000000,0.000000,3876.923096,4630.769043,4154.871582,4251.794922,3998.974365,4615.384766,3967.179443,3901.025635,4329.743652,4040.000000,4222.051270,4163.589844,4068.718018,3980.000000,0.000000,4.000000,,,,0.000000,4.000000,4.000000,4.000000,4.000000,4.000000,4.000000,4.000000,4.000000,4.000000,4.000000,2.000000,4.000000,4.000000,1.000000,58.333332
1600980944.449060,29.000000,0.000000,3887.179443,4634.358887,4158.974121,4256.922852,4010.769287,4622.563965,3966.666748,3896.923096,4334.358887,4036.923096,4225.128418,4160.512695,4068.718018,3980.512939,0.000000,4.000000,,,,0.000000,4.000000,4.000000,4.000000,4.000000,4.000000,4.000000,4.000000,4.000000,4.000000,4.000000,2.000000,4.000000,4.000000,1.000000,58.333332
1600980944.456981,30.000000,0.000000,3888.205078,4634.358887,4149.743652,4254.358887,4007.179443,4618.461426,3959.487061,3890.256348,4333.846191,4035.897461,4229.230957,4156.922852,4065.128174,3975.897461,0.000000,4.000000,,,,0.000000,4.000000,4.000000,4.000000,4.000000,4.000000,4.000000,4.000000,4.000000,4.000000,4.000000,2.000000,4.000000,4.000000,1.000000,58.333332
1600980944.464802,31.000000,0.000000,3880.000000,4631.794922,4144.102539,4247.692383,3995.384521,4611.282227,3953.846191,3893.333252,4331.794922,4036.923096,4231.794922,4161.025879,4065.641113,3973.333252,0.000000,4.000000,,,,0.000000,4.000000,4.000000,4.000000,4.000000,4.000000,4.000000,4.000000,4.000000,4.000000,4.000000,2.000000,4.000000,4.000000,1.000000,58.333332
1600980944.472523,32.000000,0.000000,3875.897461,4629.230957,4151.282227,4246.153809,3995.384521,4602.563965,3951.281982,3897.435791,4325.128418,4038.974365,4226.666504,4162.051270,4067.692383,3973.846191,0.000000,4.000000,,,,0.000000,4.000000,4.000000,4.000000,4.000000,4.000000,4.000000,4.000000,4.000000,4.000000,4.000000,2.000000,4.000000,4.000000,1.000000,58.333332
1600980944.480344,33.000000,0.000000,3880.000000,4626.666504,4156.410156,4249.743652,3998.461426,4598.974121,3952.307617,3890.256348,4320.512695,4033.333252,4222.563965,4156.410156,4066.153809,3976.923096,0.000000,4.000000,,,,0.000000,4.000000,4.000000,4.000000,4.000000,4.000000,4.000000,4.000000,4.000000,4.000000,4.000000,2.000000,4.000000,4.000000,1.000000,58.333332
1600980944.488065,34.000000,0.000000,3883.076904,4623.589844,4154.871582,4253.846191,3997.948730,4607.692383,3957.948730,3884.102539,4327.179688,4022.564209,4225.128418,4155.384766,4065.641113,3978.461426,0.000000,4.000000,,,,0.000000,4.000000,4.000000,4.000000,4.000000,4.000000,4.000000,4.000000,4.000000,4.000000,4.000000,2.000000,4.000000,4.000000,1.000000,58.333332
1600980944.495886,35.000000,0.000000,3871.281982,4617.948730,4146.153809,4247.692383,3993.846191,4606.666504,3954.358887,3880.512939,4327.692383,4015.384521,4222.563965,4153.846191,4060.000000,3977.435791,0.000000,4.000000,,,,0.000000,4.000000,4.000000,4.000000,4.000000,4.000000,4.000000,4.000000,4.000000,4.000000,4.000000,2.000000,4.000000,4.000000,1.000000,58.333332
