title:your record name, start timestamp:1601229073.348422, stop timestamp:1601229133.795991, headset type:EPOC, headset serial:28768929, headset firmware:1e00, subject name:alzaabi.su, channels:38, sampling rate:128, samples:7731      , version:2.0
Timestamp,EEG.Counter,EEG.Interpolated,EEG.AF3,EEG.F7,EEG.F3,EEG.FC5,EEG.T7,EEG.P7,EEG.O1,EEG.O2,EEG.P8,EEG.T8,EEG.FC6,EEG.F4,EEG.F8,EEG.AF4,EEG.RawCq,EEG.Battery,MarkerIndex,MarkerType,MarkerValueInt,EEG.MarkerHardware,CQ.AF3,CQ.F7,CQ.F3,CQ.FC5,CQ.T7,CQ.P7,CQ.O1,CQ.O2,CQ.P8,CQ.T8,CQ.FC6,CQ.F4,CQ.F8,CQ.AF4,CQ.Overall
1601229073.348422,14.000000,0.000000,3918.974365,4627.179688,4118.974121,4304.102539,4021.538574,4631.282227,3918.461426,3845.128174,4340.512695,4055.384521,4600.000000,4153.333496,4104.102539,3936.923096,433.000000,4.000000,,,,0.000000,2.000000,4.000000,4.000000,4.000000,4.000000,4.000000,4.000000,4.000000,4.000000,4.000000,2.000000,4.000000,4.000000,1.000000,41.666668
1601229073.356343,15.000000,0.000000,3927.692383,4629.230957,4131.794922,4306.666504,4023.076904,4653.846191,3929.230713,3855.384521,4354.871582,4066.666748,4607.179688,4155.897461,4113.846191,3944.615479,67.000000,4.000000,,,,0.000000,2.000000,4.000000,4.000000,4.000000,4.000000,4.000000,4.000000,4.000000,4.000000,4.000000,2.000000,4.000000,4.000000,1.000000,41.666668
1601229073.364163,16.000000,0.000000,3918.461426,4614.358887,4130.256348,4294.871582,4028.718018,4641.538574,3918.974365,3849.230713,4347.179688,4060.000000,4600.512695,4154.871582,4107.692383,3939.487061,0.000000,4.000000,,,,0.000000,2.000000,4.000000,4.000000,4.000000,4.000000,4.000000,4.000000,4.000000,4.000000,4.000000,2.000000,4.000000,4.000000,1.000000,41.666668
1601229073.372083,17.000000,0.000000,3907.179443,4609.230957,4116.922852,4290.769043,4025.128174,4624.615234,3913.333252,3840.512939,4333.846191,4044.102539,4590.769043,4148.717773,4097.436035,3931.794922,0.000000,4.000000,,,,0.000000,2.000000,4.000000,4.000000,4.000000,4.000000,4.000000,4.000000,4.000000,4.000000,4.000000,2.000000,4.000000,4.000000,1.000000,41.666668
1601229073.379904,18.000000,0.000000,3911.281982,4609.743652,4116.410156,4293.333496,4012.307617,4627.179688,3920.000000,3837.948730,4332.820313,4039.487061,4589.743652,4142.051270,4095.384521,3934.358887,0.000000,4.000000,,,,0.000000,2.000000,4.000000,4.000000,4.000000,4.000000,4.000000,4.000000,4.000000,4.000000,4.000000,2.000000,4.000000,4.000000,1.000000,41.666668
1601229073.387824,19.000000,0.000000,3916.923096,4603.589844,4126.153809,4295.384766,4006.153809,4627.692383,3916.410156,3837.948730,4334.871582,4038.461426,4590.769043,4140.512695,4096.922852,3936.410156,0.000000,4.000000,,,,0.000000,2.000000,4.000000,4.000000,4.000000,4.000000,4.000000,4.000000,4.000000,4.000000,4.000000,2.000000,4.000000,4.000000,1.000000,41.666668
1601229073.395644,20.000000,0.000000,3916.923096,4608.205078,4128.717773,4298.974121,4015.897461,4625.641113,3910.769287,3846.666748,4338.974121,4042.564209,4593.846191,4148.717773,4102.051270,3932.820557,0.000000,4.000000,,,,0.000000,2.000000,4.000000,4.000000,4.000000,4.000000,4.000000,4.000000,4.000000,4.000000,4.000000,2.000000,4.000000,4.000000,1.000000,41.666668
1601229073.403365,21.000000,0.000000,3916.923096,4615.384766,4127.179688,4302.563965,4025.128174,4631.282227,3917.948730,3856.410156,4345.128418,4054.358887,4596.922852,4155.897461,4104.615234,3935.897461,0.000000,4.000000,,,,0.000000,2.000000,4.000000,4.000000,4.000000,4.000000,4.000000,4.000000,4.000000,4.000000,4.000000,2.000000,4.000000,4.000000,1.000000,41.666668
1601229073.411185,22.000000,0.000000,3922.564209,4611.794922,4128.717773,4306.153809,4024.102539,4637.948730,3928.718018,3854.871826,4348.717773,4061.538574,4596.922852,4155.384766,4104.102539,3940.512939,0.000000,4.000000,,,,0.000000,2.000000,4.000000,4.000000,4.000000,4.000000,4.000000,4.000000,4.000000,4.000000,4.000000,2.000000,4.000000,4.000000,1.000000,41.666668
1601229073.418906,23.000000,0.000000,3927.692383,4608.717773,4132.307617,4309.230957,4024.102539,4638.974121,3930.769287,3855.897461,4354.358887,4057.435791,4596.410156,4152.820313,4110.256348,3938.974365,0.000000,4.000000,,,,0.000000,2.000000,4.000000,4.000000,4.000000,4.000000,4.000000,4.000000,4.000000,4.000000,4.000000,2.000000,4.000000,4.000000,1.000000,41.666668
1601229073.426726,24.000000,0.000000,3925.128174,4609.743652,4130.769043,4306.153809,4025.128174,4643.589844,3929.743652,3860.512939,4358.461426,4051.794922,4596.410156,4152.820313,4113.846191,3936.410156,0.000000,4.000000,,,,0.000000,2.000000,4.000000,4.000000,4.000000,4.000000,4.000000,4.000000,4.000000,4.000000,4.000000,2.000000,4.000000,4.000000,1.000000,41.666668
1601229073.434446,25.000000,0.000000,3920.512939,4610.256348,4126.666504,4295.384766,4020.512939,4645.641113,3927.179443,3853.846191,4354.358887,4047.179443,4594.358887,4151.282227,4109.230957,3937.948730,0.000000,4.000000,,,,0.000000,2.000000,4.000000,4.000000,4.000000,4.000000,4.000000,4.000000,4.000000,4.000000,4.000000,2.000000,4.000000,4.000000,1.000000,41.666668
1601229073.442267,26.000000,0.000000,3920.512939,4604.102539,4129.743652,4290.256348,4018.974365,4635.897461,3921.538574,3849.230713,4346.153809,4044.615479,4591.282227,4151.794922,4104.102539,3939.487061,0.000000,4.000000,,,,0.000000,2.000000,4.000000,4.000000,4.000000,4.000000,4.000000,4.000000,4.000000,4.000000,4.000000,2.000000,4.000000,4.000000,1.000000,41.666668
1601229073.449987,27.000000,0.000000,3921.538574,4593.846191,4129.743652,4297.436035,4020.000000,4632.820313,3922.564209,3853.333252,4343.589844,4043.589844,4588.717773,4152.307617,4102.563965,3937.948730,0.000000,4.000000,,,,0.000000,2.000000,4.000000,4.000000,4.000000,4.000000,4.000000,4.000000,4.000000,4.000000,4.000000,2.000000,4.000000,4.000000,1.000000,41.666668
1601229073.457808,28.000000,0.000000,3920.000000,4596.410156,4124.102539,4304.102539,4029.743652,4645.641113,3933.846191,3856.410156,4348.717773,4045.641113,4585.128418,4153.333496,4104.102539,3936.410156,0.000000,4.000000,,,,0.000000,2.000000,4.000000,4.000000,4.000000,4.000000,4.000000,4.000000,4.000000,4.000000,4.000000,2.000000,4.000000,4.000000,1.000000,41.666668
1601229073.465528,29.000000,0.000000,3915.384521,4607.692383,4120.512695,4298.461426,4041.025635,4649.230957,3936.923096,3856.923096,4350.256348,4046.666748,4585.128418,4153.333496,4104.102539,3937.435791,0.000000,4.000000,,,,0.000000,2.000000,4.000000,4.000000,4.000000,4.000000,4.000000,4.000000,4.000000,4.000000,4.000000,2.000000,4.000000,4.000000,1.000000,41.666668
1601229073.473449,30.000000,0.000000,3915.897461,4610.256348,4125.641113,4296.410156,4037.948730,4635.897461,3925.128174,3857.435791,4346.153809,4045.641113,4585.641113,4150.769043,4103.077148,3936.410156,0.000000,4.000000,,,,0.000000,2.000000,4.000000,4.000000,4.000000,4.000000,4.000000,4.000000,4.000000,4.000000,4.000000,2.000000,4.000000,4.000000,1.000000,41.666668
1601229073.481269,31.000000,0.000000,3922.051270,4609.743652,4132.307617,4304.615234,4028.205078,4632.307617,3923.076904,3859.487061,4348.717773,4045.641113,4584.102539,4152.820313,4107.179688,3934.358887,0.000000,4.000000,,,,0.000000,2.000000,4.000000,4.000000,4.000000,4.000000,4.000000,4.000000,4.000000,4.000000,4.000000,2.000000,4.000000,4.000000,1.000000,41.666668
1601229073.489090,32.000000,0.000000,3924.102539,4612.820313,4132.307617,4307.692383,4024.615479,4638.461426,3924.102539,3856.410156,4349.230957,4045.128174,4581.538574,4152.820313,4109.743652,3933.846191,0.000000,4.000000,,,,0.000000,2.000000,4.000000,4.000000,4.000000,4.000000,4.000000,4.000000,4.000000,4.000000,4.000000,2.000000,4.000000,4.000000,1.000000,41.666668
1601229073.496810,33.000000,0.000000,3920.512939,4615.897461,4129.230957,4306.153809,4022.564209,4640.512695,3922.051270,3853.333252,4344.102539,4046.153809,4580.000000,4149.230957,4106.153809,3931.794922,0.000000,4.000000,,,,0.000000,2.000000,4.000000,4.000000,4.000000,4.000000,4.000000,4.000000,4.000000,4.000000,4.000000,2.000000,4.000000,4.000000,1.000000,41.666668
1601229073.504731,34.000000,0.000000,3924.102539,4616.922852,4132.307617,4302.563965,4021.538574,4643.589844,3928.205078,3858.974365,4348.717773,4047.692383,4580.000000,4155.897461,4110.769043,3936.410156,0.000000,4.000000,,,,0.000000,2.000000,4.000000,4.000000,4.000000,4.000000,4.000000,4.000000,4.000000,4.000000,4.000000,2.000000,4.000000,4.000000,1.000000,41.666668
1601229073.512551,35.000000,0.000000,3932.820557,4612.307617,4141.025879,4301.025879,4032.307617,4645.641113,3933.333252,3864.102539,4360.000000,4048.205078,4581.538574,4161.025879,4123.077148,3941.538574,0.000000,4.000000,,,,0.000000,2.000000,4.000000,4.000000,4.000000,4.000000,4.000000,4.000000,4.000000,4.000000,4.000000,2.000000,4.000000,4.000000,1.000000,41.666668
1601229073.520472,36.000000,0.000000,3933.333252,4607.179688,4141.538574,4305.641113,4038.461426,4641.538574,3926.153809,3860.000000,4358.974121,4047.692383,4583.589844,4157.948730,4126.666504,3941.025635,0.000000,4.000000,,,,0.000000,2.000000,4.000000,4.000000,4.000000,4.000000,4.000000,4.000000,4.000000,4.000000,4.000000,2.000000,4.000000,4.000000,1.000000,41.666668
1601229073.528292,37.000000,0.000000,3927.692383,4608.205078,4135.384766,4308.717773,4031.281982,4641.538574,3924.615479,3857.948730,4354.871582,4048.718018,4582.563965,4160.000000,4120.512695,3942.564209,0.000000,4.000000,,,,0.000000,2.000000,4.000000,4.000000,4.000000,4.000000,4.000000,4.000000,4.000000,4.000000,4.000000,2.000000,4.000000,4.000000,1.000000,41.666668
1601229073.536212,38.000000,0.000000,3926.666748,4612.820313,4136.922852,4305.128418,4025.128174,4646.153809,3932.820557,3862.051270,4357.948730,4053.846191,4586.666504,4166.153809,4126.153809,3946.666748,0.000000,4.000000,,,,0.000000,2.000000,4.000000,4.000000,4.000000,4.000000,4.000000,4.000000,4.000000,4.000000,4.000000,2.000000,4.000000,4.000000,1.000000,41.666668
1601229073.544033,39.000000,0.000000,3932.820557,4615.384766,4146.666504,4306.153809,4032.307617,4641.025879,3931.281982,3866.153809,4362.051270,4060.000000,4596.922852,4167.179688,4139.487305,3943.076904,0.000000,4.000000,,,,0.000000,2.000000,4.000000,4.000000,4.000000,4.000000,4.000000,4.000000,4.000000,4.000000,4.000000,2.000000,4.000000,4.000000,1.000000,41.666668
1601229073.551953,40.000000,0.000000,3933.333252,4612.307617,4145.128418,4306.666504,4042.051270,4634.358887,3929.230713,3866.666748,4359.487305,4057.435791,4595.897461,4168.717773,4132.820313,3940.512939,0.000000,4.000000,,,,0.000000,2.000000,4.000000,4.000000,4.000000,4.000000,4.000000,4.000000,4.000000,4.000000,4.000000,2.000000,4.000000,4.000000,1.000000,41.666668
1601229073.559773,41.000000,0.000000,3926.153809,4608.205078,4133.846191,4296.410156,4039.487061,4642.051270,3935.897461,3863.076904,4354.358887,4047.179443,4585.641113,4168.717773,4113.846191,3942.051270,0.000000,4.000000,,,,0.000000,2.000000,4.000000,4.000000,4.000000,4.000000,4.000000,4.000000,4.000000,4.000000,4.000000,2.000000,4.000000,4.000000,1.000000,41.666668
1601229073.567694,42.000000,0.000000,3923.076904,4603.077148,4132.820313,4293.333496,4034.358887,4647.179688,3932.820557,3858.461426,4351.282227,4040.512939,4581.025879,4158.461426,4111.282227,3938.974365,0.000000,4.000000,,,,0.000000,2.000000,4.000000,4.000000,4.000000,4.000000,4.000000,4.000000,4.000000,4.000000,4.000000,2.000000,4.000000,4.000000,1.000000,41.666668
1601229073.575514,43.000000,0.000000,3924.615479,4600.000000,4134.871582,4304.615234,4030.769287,4638.974121,3921.538574,3855.384521,4349.743652,4040.512939,4580.512695,4152.307617,4121.538574,3934.358887,0.000000,4.000000,,,,0.000000,2.000000,4.000000,4.000000,4.000000,4.000000,4.000000,4.000000,4.000000,4.000000,4.000000,2.000000,4.000000,4.000000,1.000000,41.666668
1601229073.583234,44.000000,0.000000,3921.538574,4609.743652,4130.256348,4310.256348,4030.769287,4635.384766,3925.128174,3856.923096,4353.333496,4045.641113,4581.025879,4153.846191,4125.641113,3934.358887,0.000000,4.000000,,,,0.000000,2.000000,4.000000,4.000000,4.000000,4.000000,4.000000,4.000000,4.000000,4.000000,4.000000,2.000000,4.000000,4.000000,1.000000,41.666668
1601229073.591055,45.000000,0.000000,3919.487061,4622.051270,4129.230957,4305.128418,4037.435791,4641.025879,3933.846191,3861.025635,4355.384766,4051.794922,4584.102539,4156.410156,4123.077148,3929.743652,0.000000,4.000000,,,,0.000000,2.000000,4.000000,4.000000,4.000000,4.000000,4.000000,4.000000,4.000000,4.000000,4.000000,2.000000,4.000000,4.000000,1.000000,41.666668
1601229073.598775,46.000000,0.000000,3926.153809,4618.461426,4135.384766,4295.897461,4040.000000,4646.666504,3931.794922,3864.102539,4350.256348,4048.205078,4582.051270,4154.871582,4118.461426,3923.589844,0.000000,4.000000,,,,0.000000,2.000000,4.000000,4.000000,4.000000,4.000000,4.000000,4.000000,4.000000,4.000000,4.000000,2.000000,4.000000,4.000000,1.000000,41.666668
1601229073.606596,47.000000,0.000000,3929.230713,4608.717773,4135.897461,4293.846191,4035.897461,4653.333496,3934.358887,3867.179443,4350.769043,4042.051270,4573.333496,4151.794922,4110.769043,3924.102539,0.000000,4.000000,,,,0.000000,2.000000,4.000000,4.000000,4.000000,4.000000,4.000000,4.000000,4.000000,4.000000,4.000000,2.000000,4.000000,4.000000,1.000000,41.666668
1601229073.614316,48.000000,0.000000,3921.538574,4605.128418,4126.666504,4300.000000,4034.358887,4653.846191,3944.102539,3873.333252,4360.000000,4040.512939,4564.615234,4151.794922,4105.128418,3921.538574,0.000000,4.000000,,,,0.000000,2.000000,4.000000,4.000000,4.000000,4.000000,4.000000,4.000000,4.000000,4.000000,4.000000,2.000000,4.000000,4.000000,1.000000,41.666668
1601229073.622237,49.000000,0.000000,3914.358887,4603.589844,4124.102539,4297.436035,4033.333252,4642.051270,3939.487061,3873.333252,4361.538574,4036.923096,4561.025879,4151.794922,4109.743652,3915.384521,0.000000,4.000000,,,,0.000000,2.000000,4.000000,4.000000,4.000000,4.000000,4.000000,4.000000,4.000000,4.000000,4.000000,2.000000,4.000000,4.000000,1.000000,41.666668
1601229073.630057,50.000000,0.000000,3920.000000,4606.153809,4131.794922,4289.230957,4030.256348,4636.922852,3930.256348,3869.230713,4356.410156,4038.974365,4567.179688,4153.333496,4121.538574,3920.512939,0.000000,4.000000,,,,0.000000,2.000000,4.000000,4.000000,4.000000,4.000000,4.000000,4.000000,4.000000,4.000000,4.000000,2.000000,4.000000,4.000000,1.000000,41.666668
1601229073.637878,51.000000,0.000000,3925.128174,4608.205078,4134.871582,4292.820313,4030.769287,4650.256348,3936.410156,3870.256348,4361.025879,4046.666748,4572.307617,4155.897461,4126.153809,3929.230713,0.000000,4.000000,,,,0.000000,2.000000,4.000000,4.000000,4.000000,4.000000,4.000000,4.000000,4.000000,4.000000,4.000000,2.000000,4.000000,4.000000,1.000000,41.666668
1601229073.645598,52.000000,0.000000,3918.974365,4604.102539,4130.769043,4300.000000,4031.794922,4653.333496,3938.461426,3870.256348,4365.128418,4042.051270,4564.102539,4155.897461,4119.487305,3923.589844,0.000000,4.000000,,,,0.000000,2.000000,4.000000,4.000000,4.000000,4.000000,4.000000,4.000000,4.000000,4.000000,4.000000,2.000000,4.000000,4.000000,1.000000,41.666668
1601229073.653419,53.000000,0.000000,3915.897461,4598.974121,4134.358887,4295.897461,4029.743652,4638.461426,3930.256348,3867.179443,4356.410156,4037.948730,4558.461426,4155.897461,4113.333496,3918.974365,0.000000,4.000000,,,,0.000000,2.000000,4.000000,4.000000,4.000000,4.000000,4.000000,4.000000,4.000000,4.000000,4.000000,2.000000,4.000000,4.000000,1.000000,41.666668
1601229073.661139,54.000000,0.000000,3920.000000,4597.948730,4137.948730,4292.307617,4035.897461,4636.922852,3931.281982,3866.666748,4349.230957,4050.256348,4566.153809,4156.922852,4113.333496,3921.538574,0.000000,4.000000,,,,0.000000,2.000000,4.000000,4.000000,4.000000,4.000000,4.000000,4.000000,4.000000,4.000000,4.000000,2.000000,4.000000,4.000000,1.000000,41.666668
1601229073.669060,55.000000,0.000000,3920.512939,4597.948730,4131.282227,4294.871582,4041.538574,4646.153809,3934.358887,3865.128174,4352.820313,4053.333252,4565.641113,4154.358887,4108.717773,3920.000000,0.000000,4.000000,,,,0.000000,2.000000,4.000000,4.000000,4.000000,4.000000,4.000000,4.000000,4.000000,4.000000,4.000000,2.000000,4.000000,4.000000,1.000000,41.666668
1601229073.676880,56.000000,0.000000,3913.846191,4593.333496,4126.666504,4291.282227,4029.230713,4644.102539,3932.307617,3864.615479,4355.897461,4036.923096,4554.358887,4150.769043,4100.000000,3915.897461,0.000000,4.000000,,,,0.000000,2.000000,4.000000,4.000000,4.000000,4.000000,4.000000,4.000000,4.000000,4.000000,4.000000,2.000000,4.000000,4.000000,1.000000,41.666668
1601229073.684801,57.000000,0.000000,3914.871826,4592.820313,4128.205078,4284.615234,4015.384521,4638.461426,3931.794922,3861.538574,4352.820313,4032.307617,4553.333496,4151.794922,4105.128418,3920.000000,0.000000,4.000000,,,,0.000000,2.000000,4.000000,4.000000,4.000000,4.000000,4.000000,4.000000,4.000000,4.000000,4.000000,2.000000,4.000000,4.000000,1.000000,41.666668
1601229073.692621,58.000000,0.000000,3922.564209,4594.358887,4131.794922,4288.717773,4021.025635,4644.102539,3934.358887,3862.564209,4352.820313,4042.051270,4558.461426,4154.358887,4117.436035,3925.128174,0.000000,4.000000,,,,0.000000,2.000000,4.000000,4.000000,4.000000,4.000000,4.000000,4.000000,4.000000,4.000000,4.000000,2.000000,4.000000,4.000000,1.000000,41.666668
1601229073.700542,59.000000,0.000000,3921.538574,4597.436035,4130.769043,4297.436035,4027.179443,4646.153809,3932.307617,3864.102539,4353.333496,4041.025635,4554.871582,4153.333496,4113.846191,3922.051270,0.000000,4.000000,,,,0.000000,2.000000,4.000000,4.000000,4.000000,4.000000,4.000000,4.000000,4.000000,4.000000,4.000000,2.000000,4.000000,4.000000,1.000000,41.666668
1601229073.708362,60.000000,0.000000,3918.974365,4612.307617,4128.205078,4297.948730,4016.923096,4636.922852,3924.102539,3856.410156,4344.102539,4026.666748,4547.179688,4149.743652,4102.563965,3918.461426,0.000000,4.000000,,,,0.000000,2.000000,4.000000,4.000000,4.000000,4.000000,4.000000,4.000000,4.000000,4.000000,4.000000,2.000000,4.000000,4.000000,1.000000,41.666668
1601229073.716283,61.000000,0.000000,3923.589844,4621.025879,4125.641113,4293.846191,4016.410156,4628.205078,3917.435791,3854.871826,4339.487305,4021.025635,4543.077148,4147.179688,4100.000000,3917.948730,0.000000,4.000000,,,,0.000000,2.000000,4.000000,4.000000,4.000000,4.000000,4.000000,4.000000,4.000000,4.000000,4.000000,2.000000,4.000000,4.000000,1.000000,41.666668
1601229073.724103,62.000000,0.000000,3931.281982,4615.384766,4128.717773,4291.794922,4025.641113,4629.743652,3921.025635,3862.051270,4346.153809,4024.102539,4543.077148,4150.769043,4097.948730,3920.000000,0.000000,4.000000,,,,0.000000,2.000000,4.000000,4.000000,4.000000,4.000000,4.000000,4.000000,4.000000,4.000000,4.000000,2.000000,4.000000,4.000000,1.000000,41.666668
1601229073.732023,63.000000,0.000000,3935.384521,4615.384766,4138.974121,4300.000000,4027.692383,4638.974121,3930.256348,3863.589844,4351.794922,4024.615479,4547.179688,4156.410156,4103.589844,3921.538574,0.000000,4.000000,,,,0.000000,2.000000,4.000000,4.000000,4.000000,4.000000,4.000000,4.000000,4.000000,4.000000,4.000000,2.000000,4.000000,4.000000,1.000000,41.666668
1601229073.739844,64.000000,0.000000,3931.794922,4620.512695,4140.000000,4310.256348,4024.102539,4635.384766,3924.102539,3856.410156,4345.641113,4017.948730,4547.179688,4156.922852,4107.692383,3921.538574,363.000000,4.000000,,,,0.000000,2.000000,4.000000,4.000000,4.000000,4.000000,4.000000,4.000000,4.000000,4.000000,4.000000,2.000000,4.000000,4.000000,1.000000,41.666668
1601229073.747764,65.000000,0.000000,3923.589844,4619.487305,4127.692383,4302.563965,4020.000000,4622.051270,3909.230713,3854.358887,4338.461426,4011.794922,4541.025879,4152.820313,4100.512695,3920.512939,437.000000,4.000000,,,,0.000000,2.000000,4.000000,4.000000,4.000000,4.000000,4.000000,4.000000,4.000000,4.000000,4.000000,2.000000,4.000000,4.000000,1.000000,41.666668
1601229073.755584,66.000000,0.000000,3920.512939,4618.461426,4123.077148,4289.230957,4017.948730,4622.051270,3907.692383,3853.846191,4337.436035,4009.230713,4541.538574,4152.307617,4098.461426,3918.974365,371.000000,4.000000,,,,0.000000,2.000000,4.000000,4.000000,4.000000,4.000000,4.000000,4.000000,4.000000,4.000000,4.000000,2.000000,4.000000,4.000000,1.000000,41.666668
1601229073.763305,67.000000,0.000000,3928.205078,4615.384766,4134.871582,4294.358887,4020.000000,4631.794922,3912.307617,3851.794922,4335.384766,4012.307617,4544.615234,4154.871582,4101.025879,3920.512939,437.000000,4.000000,,,,0.000000,2.000000,4.000000,4.000000,4.000000,4.000000,4.000000,4.000000,4.000000,4.000000,4.000000,2.000000,4.000000,4.000000,1.000000,41.666668
1601229073.771125,68.000000,0.000000,3930.256348,4608.717773,4140.512695,4304.102539,4024.615479,4637.948730,3920.000000,3854.358887,4330.769043,4017.948730,4541.538574,4156.410156,4102.051270,3924.615479,458.000000,4.000000,,,,0.000000,2.000000,4.000000,4.000000,4.000000,4.000000,4.000000,4.000000,4.000000,4.000000,4.000000,2.000000,4.000000,4.000000,1.000000,41.666668
1601229073.778846,69.000000,0.000000,3919.487061,4607.692383,4131.282227,4303.589844,4026.153809,4637.948730,3924.615479,3857.948730,4331.282227,4017.435791,4540.512695,4153.846191,4106.666504,3924.102539,432.000000,4.000000,,,,0.000000,2.000000,4.000000,4.000000,4.000000,4.000000,4.000000,4.000000,4.000000,4.000000,4.000000,2.000000,4.000000,4.000000,1.000000,41.666668
1601229073.786666,70.000000,0.000000,3914.871826,4605.128418,4125.128418,4300.000000,4025.128174,4632.820313,3918.461426,3860.000000,4334.871582,4015.897461,4543.589844,4159.487305,4110.256348,3923.589844,445.000000,4.000000,,,,0.000000,2.000000,4.000000,4.000000,4.000000,4.000000,4.000000,4.000000,4.000000,4.000000,4.000000,2.000000,4.000000,4.000000,1.000000,41.666668
1601229073.794386,71.000000,0.000000,3922.564209,4609.230957,4130.769043,4308.717773,4021.538574,4634.358887,3924.102539,3864.615479,4341.538574,4021.538574,4542.563965,4167.179688,4110.256348,3928.205078,353.000000,4.000000,,,,0.000000,2.000000,4.000000,4.000000,4.000000,4.000000,4.000000,4.000000,4.000000,4.000000,4.000000,2.000000,4.000000,4.000000,1.000000,41.666668
1601229073.802207,72.000000,0.000000,3923.589844,4614.871582,4135.897461,4314.871582,4014.358887,4638.461426,3931.794922,3868.205078,4342.051270,4018.974365,4536.922852,4162.563965,4108.205078,3932.820557,408.000000,4.000000,,,,0.000000,2.000000,4.000000,4.000000,4.000000,4.000000,4.000000,4.000000,4.000000,4.000000,4.000000,2.000000,4.000000,4.000000,1.000000,41.666668
1601229073.809927,73.000000,0.000000,3915.897461,4604.102539,4128.205078,4302.563965,4013.846191,4628.205078,3912.307617,3857.435791,4327.179688,4002.051270,4527.179688,4151.794922,4096.922852,3928.205078,408.000000,4.000000,,,,0.000000,2.000000,4.000000,4.000000,4.000000,4.000000,4.000000,4.000000,4.000000,4.000000,4.000000,2.000000,4.000000,4.000000,1.000000,41.666668
1601229073.817748,74.000000,0.000000,3920.000000,4595.897461,4125.641113,4295.897461,4016.410156,4615.897461,3893.333252,3842.564209,4313.846191,3992.820557,4518.461426,4149.230957,4086.153809,3926.153809,433.000000,4.000000,,,,0.000000,2.000000,4.000000,4.000000,4.000000,4.000000,4.000000,4.000000,4.000000,4.000000,4.000000,2.000000,4.000000,4.000000,1.000000,41.666668
1601229073.825468,75.000000,0.000000,3925.128174,4603.077148,4132.307617,4306.153809,4014.871826,4618.974121,3903.589844,3846.666748,4315.384766,3995.897461,4516.410156,4149.743652,4085.128174,3928.718018,67.000000,4.000000,,,,0.000000,2.000000,4.000000,4.000000,4.000000,4.000000,4.000000,4.000000,4.000000,4.000000,4.000000,2.000000,4.000000,4.000000,1.000000,41.666668
1601229073.833288,76.000000,0.000000,3917.948730,4607.179688,4127.692383,4310.256348,4013.333252,4627.179688,3915.897461,3852.820557,4315.897461,3995.384521,4516.410156,4147.179688,4083.589844,3928.205078,243.000000,4.000000,,,,0.000000,2.000000,4.000000,4.000000,4.000000,4.000000,4.000000,4.000000,4.000000,4.000000,4.000000,2.000000,4.000000,4.000000,1.000000,41.666668
1601229073.841009,77.000000,0.000000,3916.923096,4605.128418,4121.538574,4302.051270,4017.435791,4631.282227,3910.256348,3849.743652,4314.358887,3994.871826,4516.410156,4150.769043,4090.256348,3932.307617,329.000000,4.000000,,,,0.000000,2.000000,4.000000,4.000000,4.000000,4.000000,4.000000,4.000000,4.000000,4.000000,4.000000,2.000000,4.000000,4.000000,1.000000,41.666668
1601229073.848929,78.000000,0.000000,3921.025635,4606.666504,4125.128418,4301.538574,4020.000000,4628.205078,3902.051270,3849.230713,4318.974121,3997.435791,4523.077148,4153.333496,4097.948730,3935.897461,433.000000,4.000000,,,,0.000000,2.000000,4.000000,4.000000,4.000000,4.000000,4.000000,4.000000,4.000000,4.000000,4.000000,2.000000,4.000000,4.000000,1.000000,41.666668
1601229073.856750,79.000000,0.000000,3921.538574,4603.589844,4125.641113,4304.102539,4014.871826,4621.025879,3900.512939,3851.794922,4321.538574,3996.410156,4526.666504,4151.282227,4092.820557,3932.820557,67.000000,4.000000,,,,0.000000,2.000000,4.000000,4.000000,4.000000,4.000000,4.000000,4.000000,4.000000,4.000000,4.000000,2.000000,4.000000,4.000000,1.000000,41.666668
1601229073.864671,80.000000,0.000000,3920.000000,4600.000000,4122.563965,4304.102539,4016.923096,4630.256348,3912.820557,3856.410156,4327.692383,4000.512939,4522.563965,4151.282227,4093.333252,3930.769287,243.000000,4.000000,,,,0.000000,2.000000,4.000000,4.000000,4.000000,4.000000,4.000000,4.000000,4.000000,4.000000,4.000000,2.000000,4.000000,4.000000,1.000000,41.666668
1601229073.872491,81.000000,0.000000,3920.000000,4602.051270,4128.717773,4302.051270,4025.641113,4641.025879,3924.102539,3862.564209,4341.538574,4007.692383,4523.077148,4153.333496,4102.051270,3935.897461,329.000000,4.000000,,,,0.000000,2.000000,4.000000,4.000000,4.000000,4.000000,4.000000,4.000000,4.000000,4.000000,4.000000,2.000000,4.000000,4.000000,1.000000,41.666668
1601229073.880412,82.000000,0.000000,3923.076904,4600.512695,4138.461426,4298.974121,4023.589844,4628.717773,3918.461426,3861.025635,4341.025879,4008.205078,4525.128418,4154.358887,4101.025879,3935.897461,433.000000,4.000000,,,,0.000000,2.000000,4.000000,4.000000,4.000000,4.000000,4.000000,4.000000,4.000000,4.000000,4.000000,2.000000,4.000000,4.000000,1.000000,41.666668
1601229073.888232,83.000000,0.000000,3924.102539,4595.897461,4132.820313,4300.512695,4014.871826,4621.025879,3915.897461,3857.435791,4331.282227,4004.102539,4517.948730,4152.307617,4090.769287,3932.307617,67.000000,4.000000,,,,0.000000,2.000000,4.000000,4.000000,4.000000,4.000000,4.000000,4.000000,4.000000,4.000000,4.000000,2.000000,4.000000,4.000000,1.000000,41.666668
1601229073.896153,84.000000,0.000000,3921.025635,4600.000000,4121.538574,4306.666504,4018.461426,4635.384766,3932.307617,3863.076904,4338.461426,4007.179443,4509.230957,4151.282227,4091.281982,3932.820557,243.000000,4.000000,,,,0.000000,2.000000,4.000000,4.000000,4.000000,4.000000,4.000000,4.000000,4.000000,4.000000,4.000000,2.000000,4.000000,4.000000,1.000000,41.666668
1601229073.903973,85.000000,0.000000,3918.461426,4607.179688,4122.051270,4307.692383,4027.692383,4637.436035,3935.384521,3868.205078,4350.769043,4012.307617,4510.256348,4156.410156,4101.538574,3934.358887,329.000000,4.000000,,,,0.000000,2.000000,4.000000,4.000000,4.000000,4.000000,4.000000,4.000000,4.000000,4.000000,4.000000,2.000000,4.000000,4.000000,1.000000,41.666668
1601229073.911893,86.000000,0.000000,3924.102539,4608.205078,4132.307617,4304.615234,4030.256348,4630.256348,3918.974365,3867.692383,4349.230957,4012.307617,4516.922852,4164.615234,4110.256348,3936.923096,433.000000,4.000000,,,,0.000000,2.000000,4.000000,4.000000,4.000000,4.000000,4.000000,4.000000,4.000000,4.000000,4.000000,2.000000,4.000000,4.000000,1.000000,41.666668
1601229073.919714,87.000000,0.000000,3928.205078,4606.666504,4137.436035,4303.077148,4024.615479,4639.487305,3916.410156,3865.128174,4339.487305,4012.307617,4515.897461,4161.538574,4114.358887,3937.948730,67.000000,4.000000,,,,0.000000,2.000000,4.000000,4.000000,4.000000,4.000000,4.000000,4.000000,4.000000,4.000000,4.000000,2.000000,4.000000,4.000000,1.000000,41.666668
1601229073.927634,88.000000,0.000000,3922.051270,4607.179688,4131.794922,4303.077148,4019.487061,4644.615234,3923.076904,3860.000000,4333.333496,4011.281982,4504.615234,4152.820313,4105.641113,3935.897461,243.000000,4.000000,,,,0.000000,2.000000,4.000000,4.000000,4.000000,4.000000,4.000000,4.000000,4.000000,4.000000,4.000000,2.000000,4.000000,4.000000,1.000000,41.666668
1601229073.935454,89.000000,0.000000,3918.974365,4602.051270,4129.230957,4304.615234,4020.512939,4632.820313,3917.435791,3857.948730,4335.384766,4006.153809,4497.436035,4151.794922,4094.358887,3936.410156,329.000000,4.000000,,,,0.000000,2.000000,4.000000,4.000000,4.000000,4.000000,4.000000,4.000000,4.000000,4.000000,4.000000,2.000000,4.000000,4.000000,1.000000,41.666668
1601229073.943175,90.000000,0.000000,3922.564209,4597.436035,4129.230957,4303.589844,4024.615479,4629.230957,3914.871826,3861.025635,4339.487305,3998.461426,4500.000000,4152.820313,4093.846191,3936.923096,433.000000,4.000000,,,,0.000000,2.000000,4.000000,4.000000,4.000000,4.000000,4.000000,4.000000,4.000000,4.000000,4.000000,2.000000,4.000000,4.000000,1.000000,41.666668
1601229073.950995,91.000000,0.000000,3921.538574,4605.641113,4129.743652,4303.077148,4023.076904,4636.922852,3922.564209,3866.153809,4340.512695,3996.410156,4498.461426,4152.307617,4095.384521,3933.846191,67.000000,4.000000,,,,0.000000,2.000000,4.000000,4.000000,4.000000,4.000000,4.000000,4.000000,4.000000,4.000000,4.000000,2.000000,4.000000,4.000000,1.000000,41.666668
1601229073.958715,92.000000,0.000000,3921.025635,4611.794922,4132.307617,4308.205078,4020.000000,4637.948730,3926.153809,3869.743652,4340.512695,4005.641113,4498.974121,4155.897461,4097.436035,3933.333252,243.000000,4.000000,,,,0.000000,2.000000,4.000000,4.000000,4.000000,4.000000,4.000000,4.000000,4.000000,4.000000,4.000000,2.000000,4.000000,4.000000,1.000000,41.666668
1601229073.966536,93.000000,0.000000,3925.641113,4601.025879,4134.358887,4302.563965,4019.487061,4631.794922,3925.641113,3867.179443,4340.000000,4013.333252,4511.282227,4156.922852,4109.230957,3936.410156,329.000000,4.000000,,,,0.000000,2.000000,4.000000,4.000000,4.000000,4.000000,4.000000,4.000000,4.000000,4.000000,4.000000,2.000000,4.000000,4.000000,1.000000,41.666668
1601229073.974256,94.000000,0.000000,3925.641113,4597.948730,4130.256348,4293.333496,4018.461426,4631.282227,3923.076904,3863.589844,4336.922852,4008.205078,4517.948730,4153.333496,4114.871582,3934.358887,433.000000,4.000000,,,,0.000000,2.000000,4.000000,4.000000,4.000000,4.000000,4.000000,4.000000,4.000000,4.000000,4.000000,2.000000,4.000000,4.000000,1.000000,41.666668
1601229073.982077,95.000000,0.000000,3918.461426,4607.692383,4125.641113,4300.512695,4021.538574,4633.333496,3920.000000,3865.641113,4337.948730,4002.051270,4511.794922,4152.820313,4108.717773,3932.307617,67.000000,4.000000,,,,0.000000,2.000000,4.000000,4.000000,4.000000,4.000000,4.000000,4.000000,4.000000,4.000000,4.000000,2.000000,4.000000,4.000000,1.000000,41.666668
1601229073.989797,96.000000,0.000000,3919.487061,4597.948730,4128.205078,4300.512695,4026.153809,4627.692383,3916.923096,3862.051270,4338.974121,4004.102539,4509.743652,4152.820313,4106.153809,3932.820557,243.000000,4.000000,,,,0.000000,2.000000,4.000000,4.000000,4.000000,4.000000,4.000000,4.000000,4.000000,4.000000,4.000000,2.000000,4.000000,4.000000,1.000000,41.666668
1601229073.997618,97.000000,0.000000,3921.025635,4584.615234,4126.666504,4287.692383,4024.615479,4628.717773,3914.871826,3857.948730,4334.871582,4004.102539,4512.307617,4150.769043,4103.077148,3932.307617,329.000000,4.000000,,,,0.000000,2.000000,4.000000,4.000000,4.000000,4.000000,4.000000,4.000000,4.000000,4.000000,4.000000,2.000000,4.000000,4.000000,1.000000,41.666668
1601229074.005338,98.000000,0.000000,3918.974365,4595.384766,4122.563965,4293.333496,4022.051270,4637.948730,3920.512939,3863.589844,4337.436035,4003.076904,4511.794922,4152.307617,4105.128418,3930.769287,433.000000,4.000000,,,,0.000000,2.000000,4.000000,4.000000,4.000000,4.000000,4.000000,4.000000,4.000000,4.000000,4.000000,2.000000,4.000000,4.000000,1.000000,41.666668
1601229074.013158,99.000000,0.000000,3920.512939,4604.615234,4123.589844,4304.102539,4025.641113,4642.051270,3928.718018,3871.794922,4348.717773,4009.230713,4510.769043,4152.820313,4113.333496,3929.743652,67.000000,4.000000,,,,0.000000,2.000000,4.000000,4.000000,4.000000,4.000000,4.000000,4.000000,4.000000,4.000000,4.000000,2.000000,4.000000,4.000000,1.000000,41.666668
1601229074.020879,100.000000,0.000000,3921.025635,4592.820313,4128.205078,4296.410156,4026.666748,4638.974121,3925.641113,3868.718018,4348.717773,4006.153809,4510.256348,4150.256348,4106.666504,3929.743652,243.000000,4.000000,,,,0.000000,2.000000,4.000000,4.000000,4.000000,4.000000,4.000000,4.000000,4.000000,4.000000,4.000000,2.000000,4.000000,4.000000,1.000000,41.666668
1601229074.028699,101.000000,0.000000,3917.435791,4589.230957,4130.256348,4295.384766,4020.000000,4639.487305,3923.076904,3866.666748,4341.025879,3999.487061,4507.179688,4149.743652,4101.538574,3929.230713,329.000000,4.000000,,,,0.000000,2.000000,4.000000,4.000000,4.000000,4.000000,4.000000,4.000000,4.000000,4.000000,4.000000,2.000000,4.000000,4.000000,1.000000,41.666668
1601229074.036420,102.000000,0.000000,3916.410156,4598.461426,4130.256348,4300.512695,4018.974365,4636.922852,3928.205078,3868.718018,4342.563965,4003.076904,4501.538574,4150.769043,4106.153809,3927.692383,433.000000,4.000000,,,,0.000000,2.000000,4.000000,4.000000,4.000000,4.000000,4.000000,4.000000,4.000000,4.000000,4.000000,2.000000,4.000000,4.000000,1.000000,41.666668
1601229074.044340,103.000000,0.000000,3917.435791,4597.948730,4130.769043,4294.358887,4025.641113,4626.666504,3925.128174,3864.102539,4342.051270,4000.512939,4493.846191,4148.717773,4100.000000,3925.128174,67.000000,4.000000,,,,0.000000,2.000000,4.000000,4.000000,4.000000,4.000000,4.000000,4.000000,4.000000,4.000000,4.000000,2.000000,4.000000,4.000000,1.000000,41.666668
1601229074.052161,104.000000,0.000000,3913.846191,4594.871582,4124.615234,4294.358887,4027.692383,4628.717773,3918.461426,3860.000000,4333.333496,3992.820557,4492.307617,4150.256348,4096.922852,3927.692383,243.000000,4.000000,,,,0.000000,2.000000,4.000000,4.000000,4.000000,4.000000,4.000000,4.000000,4.000000,4.000000,4.000000,2.000000,4.000000,4.000000,1.000000,41.666668
1601229074.060081,105.000000,0.000000,3916.923096,4608.205078,4124.615234,4306.666504,4028.718018,4644.615234,3924.615479,3867.179443,4337.436035,4000.000000,4502.051270,4155.897461,4111.282227,3932.307617,329.000000,4.000000,,,,0.000000,2.000000,4.000000,4.000000,4.000000,4.000000,4.000000,4.000000,4.000000,4.000000,4.000000,2.000000,4.000000,4.000000,1.000000,41.666668
1601229074.067902,106.000000,0.000000,3929.230713,4618.461426,4139.487305,4311.794922,4032.307617,4651.794922,3933.333252,3875.897461,4353.333496,4011.794922,4512.820313,4162.051270,4123.077148,3933.333252,433.000000,4.000000,,,,0.000000,2.000000,4.000000,4.000000,4.000000,4.000000,4.000000,4.000000,4.000000,4.000000,4.000000,2.000000,4.000000,4.000000,1.000000,41.666668
1601229074.075822,107.000000,0.000000,3934.871826,4612.820313,4145.641113,4312.820313,4033.333252,4646.666504,3935.384521,3877.948730,4362.051270,4011.794922,4514.358887,4165.128418,4121.538574,3934.358887,67.000000,4.000000,,,,0.000000,2.000000,4.000000,4.000000,4.000000,4.000000,4.000000,4.000000,4.000000,4.000000,4.000000,2.000000,4.000000,4.000000,1.000000,41.666668
1601229074.083643,108.000000,0.000000,3928.718018,4605.641113,4135.384766,4313.846191,4034.358887,4641.538574,3931.794922,3874.871826,4353.846191,4007.692383,4507.692383,4158.974121,4116.922852,3933.846191,243.000000,4.000000,,,,0.000000,2.000000,4.000000,4.000000,4.000000,4.000000,4.000000,4.000000,4.000000,4.000000,4.000000,2.000000,4.000000,4.000000,1.000000,41.666668
1601229074.091563,109.000000,0.000000,3922.564209,4602.563965,4132.820313,4307.692383,4035.384521,4636.922852,3927.692383,3869.230713,4342.563965,4003.589844,4502.051270,4152.820313,4113.846191,3932.307617,329.000000,4.000000,,,,0.000000,2.000000,4.000000,4.000000,4.000000,4.000000,4.000000,4.000000,4.000000,4.000000,4.000000,2.000000,4.000000,4.000000,1.000000,41.666668
1601229074.099383,110.000000,0.000000,3924.102539,4605.128418,4138.974121,4305.128418,4032.307617,4636.410156,3929.743652,3867.692383,4342.563965,4000.000000,4501.538574,4159.487305,4114.871582,3932.307617,433.000000,4.000000,,,,0.000000,2.000000,4.000000,4.000000,4.000000,4.000000,4.000000,4.000000,4.000000,4.000000,4.000000,2.000000,4.000000,4.000000,1.000000,41.666668
1601229074.107303,111.000000,0.000000,3934.358887,4614.358887,4148.205078,4309.230957,4031.281982,4638.461426,3930.256348,3871.794922,4346.666504,4000.000000,4502.051270,4169.230957,4118.461426,3936.410156,67.000000,4.000000,,,,0.000000,2.000000,4.000000,4.000000,4.000000,4.000000,4.000000,4.000000,4.000000,4.000000,4.000000,2.000000,4.000000,4.000000,1.000000,41.666668
1601229074.115124,112.000000,0.000000,3940.512939,4616.410156,4151.794922,4310.769043,4037.435791,4636.922852,3928.205078,3872.307617,4349.230957,4005.641113,4505.128418,4171.794922,4124.615234,3937.435791,243.000000,4.000000,,,,0.000000,2.000000,4.000000,4.000000,4.000000,4.000000,4.000000,4.000000,4.000000,4.000000,4.000000,2.000000,4.000000,4.000000,1.000000,41.666668
1601229074.122844,113.000000,0.000000,3934.871826,4610.256348,4143.077148,4312.820313,4043.589844,4638.974121,3934.871826,3869.743652,4354.358887,4014.358887,4508.205078,4171.794922,4132.307617,3937.948730,329.000000,4.000000,,,,0.000000,2.000000,4.000000,4.000000,4.000000,4.000000,4.000000,4.000000,4.000000,4.000000,4.000000,2.000000,4.000000,4.000000,1.000000,41.666668
1601229074.130665,114.000000,0.000000,3927.692383,4608.205078,4137.436035,4311.794922,4038.461426,4643.077148,3938.974365,3869.743652,4355.897461,4013.846191,4503.589844,4169.230957,4131.282227,3938.461426,433.000000,4.000000,,,,0.000000,2.000000,4.000000,4.000000,4.000000,4.000000,4.000000,4.000000,4.000000,4.000000,4.000000,2.000000,4.000000,4.000000,1.000000,41.666668
1601229074.138385,115.000000,0.000000,3924.615479,4604.615234,4136.922852,4307.179688,4032.307617,4636.410156,3931.794922,3870.256348,4349.230957,4005.128174,4496.410156,4164.615234,4119.487305,3934.358887,67.000000,4.000000,,,,0.000000,2.000000,4.000000,4.000000,4.000000,4.000000,4.000000,4.000000,4.000000,4.000000,4.000000,2.000000,4.000000,4.000000,1.000000,41.666668
1601229074.146205,116.000000,0.000000,3927.179443,4607.179688,4136.410156,4313.333496,4040.512939,4636.922852,3931.281982,3872.307617,4352.307617,4005.128174,4497.436035,4165.128418,4115.897461,3932.307617,243.000000,4.000000,,,,0.000000,2.000000,4.000000,4.000000,4.000000,4.000000,4.000000,4.000000,4.000000,4.000000,4.000000,2.000000,4.000000,4.000000,1.000000,41.666668
1601229074.153926,117.000000,0.000000,3932.820557,4614.358887,4142.563965,4314.358887,4045.128174,4649.230957,3940.000000,3874.358887,4360.000000,4010.769287,4499.487305,4169.230957,4126.153809,3935.384521,329.000000,4.000000,,,,0.000000,2.000000,4.000000,4.000000,4.000000,4.000000,4.000000,4.000000,4.000000,4.000000,4.000000,2.000000,4.000000,4.000000,1.000000,41.666668
1601229074.161746,118.000000,0.000000,3927.692383,4606.153809,4145.128418,4301.538574,4038.974365,4653.333496,3943.589844,3874.358887,4361.025879,4008.718018,4495.897461,4168.717773,4130.769043,3932.820557,433.000000,4.000000,,,,0.000000,2.000000,4.000000,4.000000,4.000000,4.000000,4.000000,4.000000,4.000000,4.000000,4.000000,2.000000,4.000000,4.000000,1.000000,41.666668
1601229074.169467,119.000000,0.000000,3915.384521,4596.922852,4129.743652,4300.512695,4039.487061,4645.128418,3938.974365,3874.871826,4356.922852,4002.051270,4491.282227,4158.974121,4120.000000,3927.692383,67.000000,4.000000,,,,0.000000,2.000000,4.000000,4.000000,4.000000,4.000000,4.000000,4.000000,4.000000,4.000000,4.000000,2.000000,4.000000,4.000000,1.000000,41.666668
1601229074.177287,120.000000,0.000000,3921.025635,4604.102539,4126.153809,4312.820313,4047.692383,4640.000000,3936.410156,3873.333252,4352.820313,4002.051270,4487.179688,4149.743652,4116.922852,3928.718018,243.000000,4.000000,,,,0.000000,2.000000,4.000000,4.000000,4.000000,4.000000,4.000000,4.000000,4.000000,4.000000,4.000000,2.000000,4.000000,4.000000,1.000000,41.666668
1601229074.185008,121.000000,0.000000,3931.281982,4610.769043,4144.615234,4315.897461,4047.179443,4641.538574,3940.512939,3871.794922,4352.307617,4006.153809,4487.179688,4158.461426,4125.128418,3935.384521,329.000000,4.000000,,,,0.000000,2.000000,4.000000,4.000000,4.000000,4.000000,4.000000,4.000000,4.000000,4.000000,4.000000,2.000000,4.000000,4.000000,1.000000,41.666668
1601229074.192828,122.000000,0.000000,3929.743652,4609.743652,4149.743652,4313.846191,4036.923096,4643.077148,3940.512939,3871.794922,4352.307617,4003.589844,4495.384766,4167.692383,4125.641113,3937.435791,433.000000,4.000000,,,,0.000000,2.000000,4.000000,4.000000,4.000000,4.000000,4.000000,4.000000,4.000000,4.000000,4.000000,2.000000,4.000000,4.000000,1.000000,41.666668
1601229074.200548,123.000000,0.000000,3923.076904,4607.179688,4137.948730,4310.256348,4026.153809,4637.948730,3930.769287,3869.230713,4347.179688,3993.333252,4501.025879,4160.512695,4117.948730,3935.384521,67.000000,4.000000,,,,0.000000,2.000000,4.000000,4.000000,4.000000,4.000000,4.000000,4.000000,4.000000,4.000000,4.000000,2.000000,4.000000,4.000000,1.000000,41.666668
1601229074.208369,124.000000,0.000000,3923.589844,4611.282227,4135.384766,4302.563965,4025.641113,4632.820313,3927.692383,3867.692383,4344.615234,3990.769287,4492.820313,4157.436035,4119.487305,3932.307617,243.000000,4.000000,,,,0.000000,2.000000,4.000000,4.000000,4.000000,4.000000,4.000000,4.000000,4.000000,4.000000,4.000000,2.000000,4.000000,4.000000,1.000000,41.666668
1601229074.216089,125.000000,0.000000,3926.666748,4615.897461,4139.487305,4302.051270,4032.307617,4633.846191,3931.794922,3870.256348,4346.666504,3993.846191,4488.205078,4162.563965,4125.128418,3932.820557,329.000000,4.000000,,,,0.000000,2.000000,4.000000,4.000000,4.000000,4.000000,4.000000,4.000000,4.000000,4.000000,4.000000,2.000000,4.000000,4.000000,1.000000,41.666668
1601229074.223910,126.000000,0.000000,3925.128174,4602.563965,4142.051270,4303.077148,4030.256348,4632.820313,3929.230713,3868.718018,4341.538574,3992.307617,4493.333496,4159.487305,4120.000000,3934.871826,433.000000,4.000000,,,,0.000000,2.000000,4.000000,4.000000,4.000000,4.000000,4.000000,4.000000,4.000000,4.000000,4.000000,2.000000,4.000000,4.000000,1.000000,41.666668
1601229074.231630,127.000000,0.000000,3926.153809,4586.153809,4140.512695,4297.948730,4023.589844,4628.717773,3924.615479,3866.153809,4336.410156,3992.820557,4491.794922,4153.846191,4114.358887,3932.820557,67.000000,4.000000,,,,0.000000,2.000000,4.000000,4.000000,4.000000,4.000000,4.000000,4.000000,4.000000,4.000000,4.000000,2.000000,4.000000,4.000000,1.000000,41.666668
1601229074.239551,128.000000,0.000000,3926.666748,4594.871582,4137.436035,4300.512695,4025.641113,4630.769043,3922.564209,3868.718018,4342.051270,3995.384521,4485.641113,4155.897461,4121.025879,3931.281982,243.000000,4.000000,,,,0.000000,2.000000,4.000000,4.000000,4.000000,4.000000,4.000000,4.000000,4.000000,4.000000,4.000000,2.000000,4.000000,4.000000,1.000000,41.666668
1601229074.247371,0.000000,0.000000,3923.076904,4607.692383,4136.922852,4307.179688,4029.230713,4635.897461,3927.692383,3869.743652,4348.205078,3996.923096,4487.179688,4157.948730,4125.128418,3934.871826,363.000000,4.000000,,,,0.000000,2.000000,4.000000,4.000000,4.000000,4.000000,4.000000,4.000000,4.000000,4.000000,4.000000,2.000000,4.000000,4.000000,1.000000,41.666668
1601229074.255292,1.000000,0.000000,3921.538574,4606.666504,4138.974121,4305.128418,4029.230713,4637.948730,3933.846191,3869.230713,4348.717773,3998.461426,4489.230957,4158.974121,4120.512695,3937.435791,437.000000,4.000000,,,,0.000000,2.000000,4.000000,4.000000,4.000000,4.000000,4.000000,4.000000,4.000000,4.000000,4.000000,2.000000,4.000000,4.000000,1.000000,41.666668
1601229074.263112,2.000000,0.000000,3920.000000,4605.641113,4137.436035,4302.051270,4029.743652,4639.487305,3935.384521,3870.769287,4350.256348,3999.487061,4486.153809,4158.974121,4122.051270,3934.358887,371.000000,4.000000,,,,0.000000,2.000000,4.000000,4.000000,4.000000,4.000000,4.000000,4.000000,4.000000,4.000000,4.000000,2.000000,4.000000,4.000000,1.000000,41.666668
1601229074.271032,3.000000,0.000000,3918.461426,4607.179688,4133.846191,4303.077148,4030.769287,4634.871582,3933.333252,3871.281982,4348.205078,3996.923096,4483.589844,4155.897461,4125.128418,3931.281982,436.000000,4.000000,,,,0.000000,2.000000,4.000000,4.000000,4.000000,4.000000,4.000000,4.000000,4.000000,4.000000,4.000000,2.000000,4.000000,4.000000,1.000000,41.666668
1601229074.278853,4.000000,0.000000,3918.974365,4605.641113,4132.307617,4301.538574,4026.666748,4628.717773,3930.256348,3868.205078,4342.051270,3992.307617,4482.563965,4154.358887,4118.974121,3931.281982,458.000000,4.000000,,,,0.000000,2.000000,4.000000,4.000000,4.000000,4.000000,4.000000,4.000000,4.000000,4.000000,4.000000,2.000000,4.000000,4.000000,1.000000,41.666668
1601229074.286773,5.000000,0.000000,3915.897461,4604.102539,4132.820313,4297.436035,4018.461426,4626.666504,3923.076904,3862.564209,4336.410156,3988.718018,4481.025879,4153.333496,4112.820313,3929.230713,432.000000,4.000000,,,,0.000000,2.000000,4.000000,4.000000,4.000000,4.000000,4.000000,4.000000,4.000000,4.000000,4.000000,2.000000,4.000000,4.000000,1.000000,41.666668
1601229074.294593,6.000000,0.000000,3910.256348,4603.077148,4132.307617,4292.820313,4022.564209,4623.589844,3915.897461,3859.487061,4330.769043,3984.615479,4475.384766,4151.282227,4111.282227,3924.615479,445.000000,4.000000,,,,0.000000,2.000000,4.000000,4.000000,4.000000,4.000000,4.000000,4.000000,4.000000,4.000000,4.000000,2.000000,4.000000,4.000000,1.000000,41.666668
1601229074.302513,7.000000,0.000000,3912.307617,4596.922852,4130.769043,4288.205078,4029.743652,4623.077148,3920.512939,3857.435791,4326.666504,3976.410156,4468.717773,4150.769043,4104.102539,3925.128174,353.000000,4.000000,,,,0.000000,2.000000,4.000000,4.000000,4.000000,4.000000,4.000000,4.000000,4.000000,4.000000,4.000000,2.000000,4.000000,4.000000,1.000000,41.666668
1601229074.310334,8.000000,0.000000,3912.307617,4589.743652,4128.717773,4291.282227,4020.512939,4629.743652,3928.205078,3861.025635,4331.794922,3971.794922,4466.153809,4150.769043,4094.358887,3924.102539,408.000000,4.000000,,,,0.000000,2.000000,4.000000,4.000000,4.000000,4.000000,4.000000,4.000000,4.000000,4.000000,4.000000,2.000000,4.000000,4.000000,1.000000,41.666668
1601229074.318254,9.000000,0.000000,3906.153809,4588.205078,4131.282227,4289.743652,4009.230713,4629.743652,3925.641113,3869.743652,4339.487305,3973.333252,4462.051270,4148.717773,4095.384521,3917.948730,408.000000,4.000000,,,,0.000000,2.000000,4.000000,4.000000,4.000000,4.000000,4.000000,4.000000,4.000000,4.000000,4.000000,2.000000,4.000000,4.000000,1.000000,41.666668
1601229074.326074,10.000000,0.000000,3904.615479,4590.769043,4131.282227,4280.512695,4015.384521,4623.077148,3921.025635,3872.820557,4344.102539,3978.461426,4459.487305,4149.230957,4102.563965,3915.897461,432.000000,4.000000,,,,0.000000,2.000000,4.000000,4.000000,4.000000,4.000000,4.000000,4.000000,4.000000,4.000000,4.000000,2.000000,4.000000,4.000000,1.000000,41.666668
1601229074.333795,11.000000,0.000000,3912.307617,4589.743652,4128.205078,4286.153809,4022.564209,4625.128418,3922.564209,3866.153809,4345.128418,3984.102539,4465.128418,4152.307617,4111.282227,3922.564209,67.000000,4.000000,,,,0.000000,2.000000,4.000000,4.000000,4.000000,4.000000,4.000000,4.000000,4.000000,4.000000,4.000000,2.000000,4.000000,4.000000,1.000000,41.666668
1601229074.341615,12.000000,0.000000,3916.410156,4587.179688,4129.230957,4294.358887,4016.410156,4630.256348,3924.102539,3862.564209,4341.025879,3987.692383,4466.153809,4153.846191,4116.410156,3925.128174,243.000000,4.000000,,,,0.000000,2.000000,4.000000,4.000000,4.000000,4.000000,4.000000,4.000000,4.000000,4.000000,4.000000,2.000000,4.000000,4.000000,1.000000,41.666668
1601229074.349336,13.000000,0.000000,3914.871826,4588.717773,4133.333496,4287.179688,4014.358887,4629.743652,3923.589844,3867.179443,4340.000000,3983.076904,4460.512695,4154.358887,4112.820313,3924.102539,329.000000,4.000000,,,,0.000000,2.000000,4.000000,4.000000,4.000000,4.000000,4.000000,4.000000,4.000000,4.000000,4.000000,2.000000,4.000000,4.000000,1.000000,41.666668
1601229074.357156,14.000000,0.000000,3917.435791,4587.179688,4132.820313,4284.615234,4017.948730,4626.153809,3923.589844,3867.692383,4338.974121,3975.897461,4457.948730,4155.384766,4108.717773,3924.102539,432.000000,4.000000,,,,0.000000,2.000000,4.000000,4.000000,4.000000,4.000000,4.000000,4.000000,4.000000,4.000000,4.000000,2.000000,4.000000,4.000000,1.000000,41.666668
1601229074.364877,15.000000,0.000000,3922.051270,4587.179688,4129.743652,4291.794922,4017.435791,4625.641113,3924.615479,3865.128174,4336.410156,3973.333252,4460.000000,4153.333496,4107.692383,3922.051270,67.000000,4.000000,,,,0.000000,2.000000,4.000000,4.000000,4.000000,4.000000,4.000000,4.000000,4.000000,4.000000,4.000000,2.000000,4.000000,4.000000,1.000000,41.666668
1601229074.372697,16.000000,0.000000,3920.000000,4590.769043,4132.307617,4289.743652,4017.435791,4628.205078,3925.641113,3866.666748,4337.436035,3974.358887,4460.512695,4151.794922,4106.666504,3921.025635,0.000000,4.000000,,,,0.000000,2.000000,4.000000,4.000000,4.000000,4.000000,4.000000,4.000000,4.000000,4.000000,4.000000,2.000000,4.000000,4.000000,1.000000,41.666668
1601229074.380417,17.000000,0.000000,3917.435791,4597.948730,4135.897461,4292.820313,4022.051270,4629.230957,3927.692383,3872.307617,4342.563965,3978.974365,4461.025879,4154.871582,4108.717773,3925.641113,0.000000,4.000000,,,,0.000000,2.000000,4.000000,4.000000,4.000000,4.000000,4.000000,4.000000,4.000000,4.000000,4.000000,2.000000,4.000000,4.000000,1.000000,41.666668
1601229074.388238,18.000000,0.000000,3923.076904,4604.102539,4137.436035,4306.153809,4028.205078,4624.615234,3922.051270,3868.718018,4342.051270,3982.051270,4462.563965,4155.897461,4116.922852,3929.230713,0.000000,4.000000,,,,0.000000,2.000000,4.000000,4.000000,4.000000,4.000000,4.000000,4.000000,4.000000,4.000000,4.000000,2.000000,4.000000,4.000000,1.000000,41.666668
1601229074.395958,19.000000,0.000000,3920.000000,4601.025879,4133.846191,4301.538574,4028.718018,4620.000000,3913.333252,3858.974365,4336.922852,3977.948730,4462.051270,4150.769043,4115.384766,3926.666748,0.000000,4.000000,,,,0.000000,2.000000,4.000000,4.000000,4.000000,4.000000,4.000000,4.000000,4.000000,4.000000,4.000000,2.000000,4.000000,4.000000,1.000000,41.666668
1601229074.403879,20.000000,0.000000,3913.333252,4592.307617,4129.743652,4283.077148,4026.153809,4623.077148,3918.974365,3861.538574,4338.461426,3976.923096,4457.948730,4148.205078,4104.102539,3923.076904,0.000000,4.000000,,,,0.000000,2.000000,4.000000,4.000000,4.000000,4.000000,4.000000,4.000000,4.000000,4.000000,4.000000,2.000000,4.000000,4.000000,1.000000,41.666668
1601229074.411699,21.000000,0.000000,3915.897461,4591.282227,4130.256348,4278.461426,4024.102539,4628.205078,3927.692383,3869.230713,4343.589844,3982.564209,4457.436035,4150.256348,4104.102539,3922.564209,0.000000,4.000000,,,,0.000000,2.000000,4.000000,4.000000,4.000000,4.000000,4.000000,4.000000,4.000000,4.000000,4.000000,2.000000,4.000000,4.000000,1.000000,41.666668
1601229074.419620,22.000000,0.000000,3918.461426,4593.333496,4132.307617,4285.128418,4022.051270,4625.641113,3921.538574,3867.179443,4342.051270,3981.538574,4457.948730,4149.230957,4108.717773,3922.564209,0.000000,4.000000,,,,0.000000,2.000000,4.000000,4.000000,4.000000,4.000000,4.000000,4.000000,4.000000,4.000000,4.000000,2.000000,4.000000,4.000000,1.000000,41.666668
1601229074.427440,23.000000,0.000000,3915.897461,4595.384766,4129.230957,4294.871582,4027.179443,4627.179688,3921.025635,3866.666748,4340.512695,3978.461426,4455.897461,4149.230957,4108.205078,3921.025635,0.000000,4.000000,,,,0.000000,2.000000,4.000000,4.000000,4.000000,4.000000,4.000000,4.000000,4.000000,4.000000,4.000000,2.000000,4.000000,4.000000,1.000000,41.666668
1601229074.435361,24.000000,0.000000,3915.384521,4603.077148,4125.641113,4300.000000,4033.846191,4632.820313,3931.281982,3868.718018,4343.077148,3979.487061,4457.948730,4153.333496,4112.307617,3922.564209,0.000000,4.000000,,,,0.000000,2.000000,4.000000,4.000000,4.000000,4.000000,4.000000,4.000000,4.000000,4.000000,4.000000,2.000000,4.000000,4.000000,1.000000,41.666668
1601229074.443182,25.000000,0.000000,3920.000000,4608.205078,4132.820313,4295.384766,4033.846191,4631.794922,3932.307617,3866.666748,4340.512695,3981.025635,4460.512695,4154.358887,4115.897461,3924.615479,0.000000,4.000000,,,,0.000000,2.000000,4.000000,4.000000,4.000000,4.000000,4.000000,4.000000,4.000000,4.000000,4.000000,2.000000,4.000000,4.000000,1.000000,41.666668
1601229074.451102,26.000000,0.000000,3926.153809,4606.666504,4138.974121,4288.717773,4029.230713,4627.179688,3923.076904,3866.666748,4336.922852,3982.564209,4459.487305,4152.820313,4113.846191,3926.666748,0.000000,4.000000,,,,0.000000,2.000000,4.000000,4.000000,4.000000,4.000000,4.000000,4.000000,4.000000,4.000000,4.000000,2.000000,4.000000,4.000000,1.000000,41.666668
1601229074.458922,27.000000,0.000000,3928.205078,4601.538574,4140.000000,4291.282227,4030.769287,4631.794922,3922.564209,3870.769287,4342.051270,3984.102539,4458.974121,4153.846191,4114.871582,3926.666748,0.000000,4.000000,,,,0.000000,2.000000,4.000000,4.000000,4.000000,4.000000,4.000000,4.000000,4.000000,4.000000,4.000000,2.000000,4.000000,4.000000,1.000000,41.666668
1601229074.466842,28.000000,0.000000,3921.538574,4595.897461,4136.922852,4293.333496,4031.281982,4636.410156,3929.743652,3870.769287,4346.153809,3982.564209,4457.948730,4153.333496,4116.410156,3925.128174,0.000000,4.000000,,,,0.000000,2.000000,4.000000,4.000000,4.000000,4.000000,4.000000,4.000000,4.000000,4.000000,4.000000,2.000000,4.000000,4.000000,1.000000,41.666668
1601229074.474663,29.000000,0.000000,3918.461426,4591.794922,4131.794922,4291.282227,4025.641113,4636.410156,3933.333252,3868.718018,4343.077148,3983.076904,4456.922852,4151.282227,4107.692383,3924.102539,0.000000,4.000000,,,,0.000000,2.000000,4.000000,4.000000,4.000000,4.000000,4.000000,4.000000,4.000000,4.000000,4.000000,2.000000,4.000000,4.000000,1.000000,41.666668
1601229074.482583,30.000000,0.000000,3925.128174,4592.307617,4132.820313,4297.948730,4024.102539,4636.410156,3929.743652,3868.718018,4339.487305,3984.102539,4452.820313,4152.820313,4101.025879,3924.102539,0.000000,4.000000,,,,0.000000,2.000000,4.000000,4.000000,4.000000,4.000000,4.000000,4.000000,4.000000,4.000000,4.000000,2.000000,4.000000,4.000000,1.000000,41.666668
1601229074.490403,31.000000,0.000000,3928.205078,4596.922852,4141.025879,4303.077148,4025.128174,4627.179688,3921.025635,3867.179443,4333.333496,3980.512939,4448.205078,4154.871582,4104.615234,3927.179443,0.000000,4.000000,,,,0.000000,2.000000,4.000000,4.000000,4.000000,4.000000,4.000000,4.000000,4.000000,4.000000,4.000000,2.000000,4.000000,4.000000,1.000000,41.666668
1601229074.498124,32.000000,0.000000,3926.153809,4604.102539,4143.077148,4301.025879,4024.615479,4622.051270,3917.435791,3866.666748,4332.820313,3984.102539,4452.307617,4154.358887,4113.333496,3931.794922,0.000000,4.000000,,,,0.000000,2.000000,4.000000,4.000000,4.000000,4.000000,4.000000,4.000000,4.000000,4.000000,4.000000,2.000000,4.000000,4.000000,1.000000,41.666668
1601229074.505944,33.000000,0.000000,3927.179443,4606.666504,4141.025879,4307.179688,4024.102539,4630.256348,3919.487061,3868.205078,4336.410156,3994.871826,4464.102539,4155.384766,4120.512695,3938.461426,0.000000,4.000000,,,,0.000000,2.000000,4.000000,4.000000,4.000000,4.000000,4.000000,4.000000,4.000000,4.000000,4.000000,2.000000,4.000000,4.000000,1.000000,41.666668
1601229074.513665,34.000000,0.000000,3924.615479,4598.461426,4141.025879,4315.897461,4025.641113,4633.846191,3927.179443,3870.769287,4336.410156,3995.897461,4461.025879,4158.461426,4120.000000,3941.538574,0.000000,4.000000,,,,0.000000,2.000000,4.000000,4.000000,4.000000,4.000000,4.000000,4.000000,4.000000,4.000000,4.000000,2.000000,4.000000,4.000000,1.000000,41.666668
1601229074.521485,35.000000,0.000000,3916.410156,4597.948730,4137.436035,4310.769043,4023.589844,4632.820313,3935.384521,3872.820557,4338.461426,3993.333252,4450.256348,4158.974121,4115.897461,3938.974365,0.000000,4.000000,,,,0.000000,2.000000,4.000000,4.000000,4.000000,4.000000,4.000000,4.000000,4.000000,4.000000,4.000000,2.000000,4.000000,4.000000,1.000000,41.666668
1601229074.529206,36.000000,0.000000,3916.923096,4604.102539,4133.846191,4300.512695,4015.897461,4635.384766,3935.384521,3871.281982,4340.512695,3992.307617,4453.846191,4155.384766,4113.846191,3938.461426,0.000000,4.000000,,,,0.000000,2.000000,4.000000,4.000000,4.000000,4.000000,4.000000,4.000000,4.000000,4.000000,4.000000,2.000000,4.000000,4.000000,1.000000,41.666668
1601229074.537026,37.000000,0.000000,3924.615479,4602.563965,4140.512695,4304.102539,4016.410156,4637.436035,3930.256348,3867.692383,4335.897461,3988.718018,4456.410156,4158.461426,4114.358887,3941.025635,0.000000,4.000000,,,,0.000000,2.000000,4.000000,4.000000,4.000000,4.000000,4.000000,4.000000,4.000000,4.000000,4.000000,2.000000,4.000000,4.000000,1.000000,41.666668
1601229074.544746,38.000000,0.000000,3927.692383,4603.077148,4146.666504,4313.846191,4027.179443,4639.487305,3930.769287,3869.743652,4338.461426,3989.230713,4450.256348,4164.615234,4115.384766,3942.051270,0.000000,4.000000,,,,0.000000,2.000000,4.000000,4.000000,4.000000,4.000000,4.000000,4.000000,4.000000,4.000000,4.000000,2.000000,4.000000,4.000000,1.000000,41.666668
1601229074.552567,39.000000,0.000000,3927.179443,4608.205078,4144.102539,4308.205078,4033.846191,4639.487305,3935.897461,3873.846191,4345.641113,3991.794922,4446.666504,4160.000000,4113.846191,3943.076904,0.000000,4.000000,,,,0.000000,2.000000,4.000000,4.000000,4.000000,4.000000,4.000000,4.000000,4.000000,4.000000,4.000000,2.000000,4.000000,4.000000,1.000000,41.666668
1601229074.560287,40.000000,0.000000,3920.000000,4606.153809,4143.077148,4298.461426,4026.153809,4630.256348,3930.256348,3870.256348,4337.948730,3986.153809,4448.717773,4152.820313,4110.769043,3945.128174,0.000000,4.000000,,,,0.000000,2.000000,4.000000,4.000000,4.000000,4.000000,4.000000,4.000000,4.000000,4.000000,4.000000,2.000000,4.000000,4.000000,1.000000,41.666668
1601229074.568108,41.000000,0.000000,3913.333252,4594.871582,4141.025879,4302.051270,4015.897461,4625.128418,3921.538574,3865.128174,4328.205078,3981.025635,4447.179688,4154.358887,4110.256348,3943.076904,0.000000,4.000000,,,,0.000000,2.000000,4.000000,4.000000,4.000000,4.000000,4.000000,4.000000,4.000000,4.000000,4.000000,2.000000,4.000000,4.000000,1.000000,41.666668
1601229074.575828,42.000000,0.000000,3915.897461,4591.282227,4134.358887,4311.794922,4020.000000,4628.205078,3918.461426,3867.179443,4332.820313,3985.128174,4444.615234,4155.384766,4108.717773,3938.461426,0.000000,4.000000,,,,0.000000,2.000000,4.000000,4.000000,4.000000,4.000000,4.000000,4.000000,4.000000,4.000000,4.000000,2.000000,4.000000,4.000000,1.000000,41.666668
1601229074.583749,43.000000,0.000000,3920.512939,4596.410156,4139.487305,4315.897461,4027.692383,4626.153809,3919.487061,3870.256348,4335.384766,3988.718018,4445.641113,4153.846191,4106.153809,3940.000000,0.000000,4.000000,,,,0.000000,2.000000,4.000000,4.000000,4.000000,4.000000,4.000000,4.000000,4.000000,4.000000,4.000000,2.000000,4.000000,4.000000,1.000000,41.666668
1601229074.591569,44.000000,0.000000,3920.512939,4601.538574,4147.692383,4315.384766,4024.102539,4627.692383,3928.205078,3870.769287,4335.384766,3988.718018,4444.102539,4154.358887,4109.230957,3944.102539,0.000000,4.000000,,,,0.000000,2.000000,4.000000,4.000000,4.000000,4.000000,4.000000,4.000000,4.000000,4.000000,4.000000,2.000000,4.000000,4.000000,1.000000,41.666668
1601229074.599490,45.000000,0.000000,3921.025635,4603.589844,4144.102539,4311.282227,4015.384521,4629.230957,3930.769287,3869.230713,4333.846191,3985.641113,4442.051270,4153.846191,4109.743652,3944.102539,0.000000,4.000000,,,,0.000000,2.000000,4.000000,4.000000,4.000000,4.000000,4.000000,4.000000,4.000000,4.000000,4.000000,2.000000,4.000000,4.000000,1.000000,41.666668
1601229074.607310,46.000000,0.000000,3921.538574,4604.615234,4140.000000,4306.153809,4013.846191,4620.512695,3920.512939,3864.102539,4326.153809,3978.974365,4442.563965,4151.794922,4105.128418,3942.051270,0.000000,4.000000,,,,0.000000,2.000000,4.000000,4.000000,4.000000,4.000000,4.000000,4.000000,4.000000,4.000000,4.000000,2.000000,4.000000,4.000000,1.000000,41.666668
1601229074.615231,47.000000,0.000000,3923.589844,4609.743652,4143.077148,4309.743652,4018.461426,4618.974121,3921.025635,3863.589844,4327.692383,3978.461426,4441.538574,4153.333496,4106.666504,3941.538574,0.000000,4.000000,,,,0.000000,2.000000,4.000000,4.000000,4.000000,4.000000,4.000000,4.000000,4.000000,4.000000,4.000000,2.000000,4.000000,4.000000,1.000000,41.666668
1601229074.623051,48.000000,0.000000,3923.589844,4609.743652,4140.512695,4309.230957,4022.051270,4627.179688,3929.743652,3870.769287,4338.461426,3984.615479,4437.948730,4153.333496,4112.307617,3942.564209,0.000000,4.000000,,,,0.000000,2.000000,4.000000,4.000000,4.000000,4.000000,4.000000,4.000000,4.000000,4.000000,4.000000,2.000000,4.000000,4.000000,1.000000,41.666668
1601229074.630971,49.000000,0.000000,3914.358887,4605.641113,4132.820313,4302.563965,4018.974365,4627.179688,3923.589844,3871.794922,4338.974121,3983.589844,4435.384766,4148.717773,4107.179688,3938.974365,0.000000,4.000000,,,,0.000000,2.000000,4.000000,4.000000,4.000000,4.000000,4.000000,4.000000,4.000000,4.000000,4.000000,2.000000,4.000000,4.000000,1.000000,41.666668
1601229074.638792,50.000000,0.000000,3911.281982,4605.641113,4131.794922,4301.538574,4010.769287,4623.077148,3918.461426,3867.179443,4335.897461,3978.461426,4434.871582,4146.153809,4100.512695,3934.358887,0.000000,4.000000,,,,0.000000,2.000000,4.000000,4.000000,4.000000,4.000000,4.000000,4.000000,4.000000,4.000000,4.000000,2.000000,4.000000,4.000000,1.000000,41.666668
1601229074.646712,51.000000,0.000000,3916.923096,4606.666504,4136.410156,4304.102539,4013.333252,4627.179688,3925.128174,3869.743652,4341.538574,3982.564209,4436.410156,4150.769043,4106.153809,3933.846191,0.000000,4.000000,,,,0.000000,2.000000,4.000000,4.000000,4.000000,4.000000,4.000000,4.000000,4.000000,4.000000,4.000000,2.000000,4.000000,4.000000,1.000000,41.666668
1601229074.654532,52.000000,0.000000,3912.820557,4606.666504,4140.512695,4305.128418,4021.538574,4627.179688,3925.641113,3873.333252,4345.641113,3987.179443,4438.461426,4155.384766,4112.307617,3937.435791,0.000000,4.000000,,,,0.000000,2.000000,4.000000,4.000000,4.000000,4.000000,4.000000,4.000000,4.000000,4.000000,4.000000,2.000000,4.000000,4.000000,1.000000,41.666668
1601229074.662453,53.000000,0.000000,3908.718018,4608.717773,4142.563965,4305.128418,4019.487061,4621.538574,3918.461426,3869.743652,4341.025879,3986.666748,4440.512695,4154.871582,4112.820313,3939.487061,0.000000,4.000000,,,,0.000000,2.000000,4.000000,4.000000,4.000000,4.000000,4.000000,4.000000,4.000000,4.000000,4.000000,2.000000,4.000000,4.000000,1.000000,41.666668
1601229074.670273,54.000000,0.000000,3910.769287,4604.102539,4138.974121,4307.179688,4009.743652,4621.025879,3915.897461,3864.102539,4332.820313,3982.051270,4441.025879,4151.282227,4110.769043,3940.000000,0.000000,4.000000,,,,0.000000,2.000000,4.000000,4.000000,4.000000,4.000000,4.000000,4.000000,4.000000,4.000000,4.000000,2.000000,4.000000,4.000000,1.000000,41.666668
1601229074.678093,55.000000,0.000000,3910.256348,4593.846191,4134.871582,4306.666504,4006.666748,4621.538574,3921.538574,3863.589844,4330.256348,3975.384521,4439.487305,4150.256348,4110.769043,3940.512939,0.000000,4.000000,,,,0.000000,2.000000,4.000000,4.000000,4.000000,4.000000,4.000000,4.000000,4.000000,4.000000,4.000000,2.000000,4.000000,4.000000,1.000000,41.666668
1601229074.685914,56.000000,0.000000,3910.769287,4592.820313,4143.589844,4297.436035,4007.179443,4621.538574,3931.281982,3868.718018,4336.410156,3973.846191,4440.000000,4154.871582,4110.769043,3940.000000,0.000000,4.000000,,,,0.000000,2.000000,4.000000,4.000000,4.000000,4.000000,4.000000,4.000000,4.000000,4.000000,4.000000,2.000000,4.000000,4.000000,1.000000,41.666668
1601229074.693634,57.000000,0.000000,3915.384521,4598.461426,4153.333496,4293.333496,4008.205078,4627.179688,3935.897461,3871.281982,4340.000000,3979.487061,4444.615234,4159.487305,4110.256348,3938.461426,0.000000,4.000000,,,,0.000000,2.000000,4.000000,4.000000,4.000000,4.000000,4.000000,4.000000,4.000000,4.000000,4.000000,2.000000,4.000000,4.000000,1.000000,41.666668
1601229074.701454,58.000000,0.000000,3913.846191,4597.436035,4143.589844,4302.051270,4007.692383,4628.717773,3931.281982,3869.743652,4338.974121,3981.025635,4445.641113,4156.922852,4109.743652,3938.461426,0.000000,4.000000,,,,0.000000,2.000000,4.000000,4.000000,4.000000,4.000000,4.000000,4.000000,4.000000,4.000000,4.000000,2.000000,4.000000,4.000000,1.000000,41.666668
1601229074.709175,59.000000,0.000000,3915.384521,4595.897461,4131.794922,4305.128418,4004.615479,4621.025879,3927.179443,3868.718018,4341.538574,3978.974365,4441.538574,4153.846191,4110.256348,3938.461426,0.000000,4.000000,,,,0.000000,2.000000,4.000000,4.000000,4.000000,4.000000,4.000000,4.000000,4.000000,4.000000,4.000000,2.000000,4.000000,4.000000,1.000000,41.666668
1601229074.716995,60.000000,0.000000,3924.102539,4598.974121,4139.487305,4301.025879,4008.718018,4620.000000,3931.281982,3868.718018,4344.102539,3982.564209,4443.589844,4154.871582,4110.256348,3936.923096,0.000000,4.000000,,,,0.000000,2.000000,4.000000,4.000000,4.000000,4.000000,4.000000,4.000000,4.000000,4.000000,4.000000,2.000000,4.000000,4.000000,1.000000,41.666668
1601229074.724716,61.000000,0.000000,3923.076904,4600.000000,4146.666504,4307.692383,4012.820557,4627.692383,3933.846191,3869.230713,4342.051270,3985.128174,4446.666504,4154.871582,4110.256348,3936.923096,0.000000,4.000000,,,,0.000000,2.000000,4.000000,4.000000,4.000000,4.000000,4.000000,4.000000,4.000000,4.000000,4.000000,2.000000,4.000000,4.000000,1.000000,41.666668
1601229074.732536,62.000000,0.000000,3916.410156,4598.461426,4139.487305,4308.717773,4006.153809,4624.615234,3928.205078,3870.256348,4336.922852,3982.051270,4444.102539,4152.820313,4109.230957,3937.948730,0.000000,4.000000,,,,0.000000,2.000000,4.000000,4.000000,4.000000,4.000000,4.000000,4.000000,4.000000,4.000000,4.000000,2.000000,4.000000,4.000000,1.000000,41.666668
1601229074.740257,63.000000,0.000000,3917.435791,4597.948730,4134.358887,4293.333496,3999.487061,4612.307617,3917.948730,3864.102539,4329.743652,3977.948730,4441.025879,4152.307617,4104.615234,3935.897461,0.000000,4.000000,,,,0.000000,2.000000,4.000000,4.000000,4.000000,4.000000,4.000000,4.000000,4.000000,4.000000,4.000000,2.000000,4.000000,4.000000,1.000000,41.666668
1601229074.748077,64.000000,0.000000,3920.512939,4601.538574,4137.948730,4291.282227,4003.589844,4612.307617,3916.410156,3860.000000,4329.743652,3975.897461,4444.615234,4154.358887,4108.205078,3937.435791,363.000000,4.000000,,,,0.000000,2.000000,4.000000,4.000000,4.000000,4.000000,4.000000,4.000000,4.000000,4.000000,4.000000,2.000000,4.000000,4.000000,1.000000,41.666668
1601229074.755797,65.000000,0.000000,3921.538574,4608.717773,4143.077148,4305.641113,4009.230713,4630.256348,3931.794922,3868.205078,4340.512695,3980.512939,4452.820313,4161.025879,4121.025879,3946.153809,437.000000,4.000000,,,,0.000000,2.000000,4.000000,4.000000,4.000000,4.000000,4.000000,4.000000,4.000000,4.000000,4.000000,2.000000,4.000000,4.000000,1.000000,41.666668
1601229074.763718,66.000000,0.000000,3925.128174,4609.743652,4150.769043,4307.692383,4012.307617,4643.077148,3947.179443,3875.897461,4352.307617,3990.256348,4458.461426,4167.179688,4127.179688,3948.205078,371.000000,4.000000,,,,0.000000,2.000000,4.000000,4.000000,4.000000,4.000000,4.000000,4.000000,4.000000,4.000000,4.000000,2.000000,4.000000,4.000000,1.000000,41.666668
1601229074.771539,67.000000,0.000000,3929.230713,4605.128418,4155.384766,4303.589844,4012.820557,4638.974121,3944.102539,3874.358887,4356.922852,3998.461426,4463.077148,4169.230957,4130.769043,3944.102539,436.000000,4.000000,,,,0.000000,2.000000,4.000000,4.000000,4.000000,4.000000,4.000000,4.000000,4.000000,4.000000,4.000000,2.000000,4.000000,4.000000,1.000000,41.666668
1601229074.779459,68.000000,0.000000,3925.128174,4605.128418,4146.666504,4309.743652,4009.230713,4631.794922,3935.384521,3871.794922,4358.974121,4000.512939,4461.025879,4166.666504,4132.820313,3945.641113,458.000000,4.000000,,,,0.000000,2.000000,4.000000,4.000000,4.000000,4.000000,4.000000,4.000000,4.000000,4.000000,4.000000,2.000000,4.000000,4.000000,1.000000,41.666668
1601229074.787280,69.000000,0.000000,3918.461426,4603.589844,4135.897461,4309.743652,4001.538574,4629.230957,3936.410156,3871.794922,4355.897461,3993.333252,4455.897461,4159.487305,4125.128418,3947.692383,432.000000,4.000000,,,,0.000000,2.000000,4.000000,4.000000,4.000000,4.000000,4.000000,4.000000,4.000000,4.000000,4.000000,2.000000,4.000000,4.000000,1.000000,41.666668
1601229074.795200,70.000000,0.000000,3918.974365,4598.461426,4137.948730,4301.538574,4001.538574,4636.410156,3944.102539,3875.897461,4355.897461,3990.256348,4455.897461,4154.358887,4125.128418,3943.589844,445.000000,4.000000,,,,0.000000,2.000000,4.000000,4.000000,4.000000,4.000000,4.000000,4.000000,4.000000,4.000000,4.000000,2.000000,4.000000,4.000000,1.000000,41.666668
1601229074.803021,71.000000,0.000000,3923.589844,4600.512695,4144.102539,4302.051270,4011.794922,4642.051270,3947.179443,3877.435791,4363.589844,3998.974365,4457.436035,4160.000000,4131.282227,3941.538574,353.000000,4.000000,,,,0.000000,2.000000,4.000000,4.000000,4.000000,4.000000,4.000000,4.000000,4.000000,4.000000,4.000000,2.000000,4.000000,4.000000,1.000000,41.666668
1601229074.810941,72.000000,0.000000,3923.076904,4598.461426,4139.487305,4302.051270,4014.358887,4630.769043,3937.435791,3873.333252,4358.974121,4000.000000,4455.897461,4165.128418,4120.000000,3942.051270,408.000000,4.000000,,,,0.000000,2.000000,4.000000,4.000000,4.000000,4.000000,4.000000,4.000000,4.000000,4.000000,4.000000,2.000000,4.000000,4.000000,1.000000,41.666668
1601229074.818761,73.000000,0.000000,3917.948730,4585.128418,4137.948730,4296.922852,4003.589844,4621.025879,3928.205078,3870.256348,4342.051270,3986.666748,4454.358887,4158.974121,4110.256348,3942.051270,408.000000,4.000000,,,,0.000000,2.000000,4.000000,4.000000,4.000000,4.000000,4.000000,4.000000,4.000000,4.000000,4.000000,2.000000,4.000000,4.000000,1.000000,41.666668
1601229074.826682,74.000000,0.000000,3921.538574,4589.743652,4145.641113,4302.563965,4005.641113,4631.282227,3935.384521,3873.846191,4342.563965,3986.153809,4455.897461,4153.333496,4119.487305,3943.589844,432.000000,4.000000,,,,0.000000,2.000000,4.000000,4.000000,4.000000,4.000000,4.000000,4.000000,4.000000,4.000000,4.000000,2.000000,4.000000,4.000000,1.000000,41.666668
1601229074.834502,75.000000,0.000000,3926.153809,4608.717773,4144.615234,4312.307617,4016.410156,4636.410156,3940.000000,3873.846191,4350.769043,3991.794922,4457.948730,4155.897461,4123.077148,3945.128174,67.000000,4.000000,,,,0.000000,2.000000,4.000000,4.000000,4.000000,4.000000,4.000000,4.000000,4.000000,4.000000,4.000000,2.000000,4.000000,4.000000,1.000000,41.666668
1601229074.842422,76.000000,0.000000,3924.615479,4612.307617,4136.410156,4307.692383,4017.948730,4632.307617,3938.461426,3874.871826,4352.820313,3991.281982,4462.051270,4164.102539,4123.077148,3947.179443,243.000000,4.000000,,,,0.000000,2.000000,4.000000,4.000000,4.000000,4.000000,4.000000,4.000000,4.000000,4.000000,4.000000,2.000000,4.000000,4.000000,1.000000,41.666668
1601229074.850243,77.000000,0.000000,3927.179443,4607.179688,4140.000000,4303.077148,4013.846191,4642.051270,3948.205078,3884.102539,4361.538574,3999.487061,4468.717773,4169.230957,4130.256348,3951.794922,329.000000,4.000000,,,,0.000000,2.000000,4.000000,4.000000,4.000000,4.000000,4.000000,4.000000,4.000000,4.000000,4.000000,2.000000,4.000000,4.000000,1.000000,41.666668
1601229074.857963,78.000000,0.000000,3928.205078,4604.102539,4144.102539,4300.000000,4006.666748,4646.666504,3951.794922,3883.076904,4364.102539,4001.025635,4469.743652,4163.077148,4128.717773,3952.307617,432.000000,4.000000,,,,0.000000,2.000000,4.000000,4.000000,4.000000,4.000000,4.000000,4.000000,4.000000,4.000000,4.000000,2.000000,4.000000,4.000000,1.000000,41.666668
1601229074.865784,79.000000,0.000000,3917.435791,4595.384766,4137.948730,4294.871582,4000.000000,4635.384766,3938.974365,3872.307617,4350.769043,3984.615479,4453.846191,4153.846191,4116.922852,3945.128174,67.000000,4.000000,,,,0.000000,2.000000,4.000000,4.000000,4.000000,4.000000,4.000000,4.000000,4.000000,4.000000,4.000000,2.000000,4.000000,4.000000,1.000000,41.666668
1601229074.873504,80.000000,0.000000,3913.846191,4590.769043,4136.410156,4298.461426,4004.615479,4629.743652,3932.307617,3873.333252,4347.692383,3978.974365,4432.307617,4152.307617,4113.333496,3938.974365,243.000000,4.000000,,,,0.000000,2.000000,4.000000,4.000000,4.000000,4.000000,4.000000,4.000000,4.000000,4.000000,4.000000,2.000000,4.000000,4.000000,1.000000,41.666668
1601229074.881324,81.000000,0.000000,3925.128174,4604.102539,4140.512695,4309.743652,4011.281982,4631.794922,3937.435791,3880.512939,4353.333496,3987.179443,4428.717773,4156.922852,4120.512695,3940.512939,329.000000,4.000000,,,,0.000000,2.000000,4.000000,4.000000,4.000000,4.000000,4.000000,4.000000,4.000000,4.000000,4.000000,2.000000,4.000000,4.000000,1.000000,41.666668
1601229074.889045,82.000000,0.000000,3929.743652,4609.230957,4145.128418,4307.179688,4002.564209,4631.794922,3935.897461,3875.897461,4348.205078,3986.153809,4428.717773,4158.461426,4124.102539,3944.102539,432.000000,4.000000,,,,0.000000,2.000000,4.000000,4.000000,4.000000,4.000000,4.000000,4.000000,4.000000,4.000000,4.000000,2.000000,4.000000,4.000000,1.000000,41.666668
1601229074.896865,83.000000,0.000000,3922.564209,4596.410156,4145.128418,4297.948730,3998.974365,4633.333496,3931.794922,3870.256348,4345.128418,3979.487061,4420.000000,4155.897461,4122.563965,3944.102539,67.000000,4.000000,,,,0.000000,2.000000,4.000000,4.000000,4.000000,4.000000,4.000000,4.000000,4.000000,4.000000,4.000000,2.000000,4.000000,4.000000,1.000000,41.666668
1601229074.904586,84.000000,0.000000,3916.923096,4590.769043,4140.000000,4294.358887,4004.102539,4628.717773,3932.820557,3870.256348,4345.641113,3976.923096,4413.333496,4153.333496,4113.333496,3942.051270,243.000000,4.000000,,,,0.000000,2.000000,4.000000,4.000000,4.000000,4.000000,4.000000,4.000000,4.000000,4.000000,4.000000,2.000000,4.000000,4.000000,1.000000,41.666668
1601229074.912406,85.000000,0.000000,3913.846191,4590.256348,4131.282227,4292.307617,3998.974365,4620.000000,3931.281982,3868.205078,4337.948730,3974.358887,4410.769043,4153.846191,4103.589844,3940.000000,329.000000,4.000000,,,,0.000000,2.000000,4.000000,4.000000,4.000000,4.000000,4.000000,4.000000,4.000000,4.000000,4.000000,2.000000,4.000000,4.000000,1.000000,41.666668
1601229074.920126,86.000000,0.000000,3911.794922,4585.128418,4133.333496,4289.743652,3995.897461,4620.000000,3930.256348,3867.692383,4332.820313,3971.281982,4410.256348,4153.846191,4104.615234,3937.435791,432.000000,4.000000,,,,0.000000,2.000000,4.000000,4.000000,4.000000,4.000000,4.000000,4.000000,4.000000,4.000000,4.000000,2.000000,4.000000,4.000000,1.000000,41.666668
1601229074.927947,87.000000,0.000000,3918.974365,4589.230957,4143.077148,4294.871582,4004.102539,4628.717773,3932.307617,3871.794922,4340.512695,3972.820557,4413.333496,4154.871582,4112.820313,3934.871826,67.000000,4.000000,,,,0.000000,2.000000,4.000000,4.000000,4.000000,4.000000,4.000000,4.000000,4.000000,4.000000,4.000000,2.000000,4.000000,4.000000,1.000000,41.666668
1601229074.935667,88.000000,0.000000,3927.179443,4602.563965,4146.666504,4302.051270,4005.641113,4631.794922,3931.281982,3873.846191,4347.179688,3977.435791,4414.871582,4156.922852,4114.871582,3937.435791,243.000000,4.000000,,,,0.000000,2.000000,4.000000,4.000000,4.000000,4.000000,4.000000,4.000000,4.000000,4.000000,4.000000,2.000000,4.000000,4.000000,1.000000,41.666668
1601229074.943588,89.000000,0.000000,3928.205078,4607.692383,4144.102539,4306.153809,4001.538574,4627.692383,3928.718018,3871.794922,4345.641113,3980.512939,4417.948730,4155.897461,4112.307617,3941.025635,329.000000,4.000000,,,,0.000000,2.000000,4.000000,4.000000,4.000000,4.000000,4.000000,4.000000,4.000000,4.000000,4.000000,2.000000,4.000000,4.000000,1.000000,41.666668
1601229074.951408,90.000000,0.000000,3928.205078,4601.025879,4143.077148,4304.102539,4002.564209,4625.641113,3928.718018,3869.230713,4341.025879,3977.435791,4422.563965,4155.897461,4115.384766,3936.923096,432.000000,4.000000,,,,0.000000,2.000000,4.000000,4.000000,4.000000,4.000000,4.000000,4.000000,4.000000,4.000000,4.000000,2.000000,4.000000,4.000000,1.000000,41.666668
1601229074.959329,91.000000,0.000000,3927.692383,4596.410156,4147.179688,4300.000000,4003.589844,4624.615234,3929.230713,3868.205078,4337.948730,3972.820557,4417.948730,4156.922852,4113.846191,3933.846191,67.000000,4.000000,,,,0.000000,2.000000,4.000000,4.000000,4.000000,4.000000,4.000000,4.000000,4.000000,4.000000,4.000000,2.000000,4.000000,4.000000,1.000000,41.666668
1601229074.967150,92.000000,0.000000,3919.487061,4595.384766,4143.589844,4296.410156,3999.487061,4624.615234,3927.692383,3869.743652,4338.974121,3970.256348,4408.717773,4153.333496,4102.563965,3933.846191,243.000000,4.000000,,,,0.000000,2.000000,4.000000,4.000000,4.000000,4.000000,4.000000,4.000000,4.000000,4.000000,4.000000,2.000000,4.000000,4.000000,1.000000,41.666668
1601229074.975070,93.000000,0.000000,3914.871826,4596.410156,4132.820313,4294.358887,3996.410156,4627.179688,3930.256348,3871.794922,4338.974121,3965.128174,4406.666504,4150.769043,4093.846191,3932.820557,329.000000,4.000000,,,,0.000000,2.000000,4.000000,4.000000,4.000000,4.000000,4.000000,4.000000,4.000000,4.000000,4.000000,2.000000,4.000000,4.000000,1.000000,41.666668
1601229074.982891,94.000000,0.000000,3921.025635,4591.794922,4133.846191,4297.948730,3996.410156,4630.256348,3935.384521,3873.333252,4335.384766,3961.538574,4408.717773,4151.794922,4095.897461,3930.256348,432.000000,4.000000,,,,0.000000,2.000000,4.000000,4.000000,4.000000,4.000000,4.000000,4.000000,4.000000,4.000000,4.000000,2.000000,4.000000,4.000000,1.000000,41.666668
1601229074.990811,95.000000,0.000000,3927.179443,4590.769043,4147.692383,4303.077148,3999.487061,4629.230957,3937.948730,3875.897461,4339.487305,3965.641113,4409.743652,4152.307617,4104.102539,3933.846191,67.000000,4.000000,,,,0.000000,2.000000,4.000000,4.000000,4.000000,4.000000,4.000000,4.000000,4.000000,4.000000,4.000000,2.000000,4.000000,4.000000,1.000000,41.666668
1601229074.998632,96.000000,0.000000,3928.718018,4600.512695,4149.230957,4301.025879,4004.102539,4623.077148,3933.846191,3874.871826,4345.641113,3971.794922,4409.743652,4153.333496,4103.589844,3934.358887,243.000000,4.000000,,,,0.000000,2.000000,4.000000,4.000000,4.000000,4.000000,4.000000,4.000000,4.000000,4.000000,4.000000,2.000000,4.000000,4.000000,1.000000,41.666668
1601229075.006552,97.000000,0.000000,3925.641113,4605.641113,4137.948730,4296.922852,4002.564209,4616.922852,3924.102539,3869.743652,4341.025879,3970.256348,4411.282227,4155.384766,4102.051270,3932.820557,329.000000,4.000000,,,,0.000000,2.000000,4.000000,4.000000,4.000000,4.000000,4.000000,4.000000,4.000000,4.000000,4.000000,2.000000,4.000000,4.000000,1.000000,41.666668
1601229075.014372,98.000000,0.000000,3925.128174,4607.692383,4138.461426,4303.589844,4000.000000,4618.461426,3921.538574,3868.718018,4336.922852,3967.692383,4413.846191,4155.897461,4109.743652,3936.923096,432.000000,4.000000,,,,0.000000,2.000000,4.000000,4.000000,4.000000,4.000000,4.000000,4.000000,4.000000,4.000000,4.000000,2.000000,4.000000,4.000000,1.000000,41.666668
1601229075.022293,99.000000,0.000000,3933.846191,4612.820313,4147.692383,4307.179688,4005.128174,4624.102539,3928.718018,3873.333252,4341.538574,3971.281982,4415.897461,4158.974121,4116.410156,3938.461426,67.000000,4.000000,,,,0.000000,2.000000,4.000000,4.000000,4.000000,4.000000,4.000000,4.000000,4.000000,4.000000,4.000000,2.000000,4.000000,4.000000,1.000000,41.666668
1601229075.030113,100.000000,0.000000,3939.487061,4612.820313,4153.333496,4302.051270,4010.769287,4626.666504,3931.794922,3876.410156,4350.769043,3980.000000,4421.025879,4166.153809,4120.000000,3937.948730,243.000000,4.000000,,,,0.000000,2.000000,4.000000,4.000000,4.000000,4.000000,4.000000,4.000000,4.000000,4.000000,4.000000,2.000000,4.000000,4.000000,1.000000,41.666668
1601229075.038033,101.000000,0.000000,3932.307617,4607.179688,4152.820313,4303.589844,4007.179443,4626.666504,3923.589844,3873.333252,4354.358887,3986.666748,4423.589844,4170.769043,4127.179688,3941.538574,329.000000,4.000000,,,,0.000000,2.000000,4.000000,4.000000,4.000000,4.000000,4.000000,4.000000,4.000000,4.000000,4.000000,2.000000,4.000000,4.000000,1.000000,41.666668
1601229075.045854,102.000000,0.000000,3926.666748,4610.256348,4144.102539,4311.282227,4003.076904,4621.538574,3921.025635,3870.256348,4349.743652,3984.615479,4415.384766,4165.128418,4131.282227,3942.564209,432.000000,4.000000,,,,0.000000,2.000000,4.000000,4.000000,4.000000,4.000000,4.000000,4.000000,4.000000,4.000000,4.000000,2.000000,4.000000,4.000000,1.000000,41.666668
1601229075.053574,103.000000,0.000000,3930.256348,4616.922852,4142.051270,4306.153809,4005.641113,4620.512695,3930.769287,3872.820557,4345.641113,3980.512939,4406.666504,4163.077148,4126.666504,3941.025635,67.000000,4.000000,,,,0.000000,2.000000,4.000000,4.000000,4.000000,4.000000,4.000000,4.000000,4.000000,4.000000,4.000000,2.000000,4.000000,4.000000,1.000000,41.666668
1601229075.061395,104.000000,0.000000,3932.820557,4611.282227,4148.717773,4301.025879,4008.718018,4632.307617,3937.435791,3875.384521,4349.230957,3980.512939,4400.000000,4167.179688,4122.563965,3938.974365,243.000000,4.000000,,,,0.000000,2.000000,4.000000,4.000000,4.000000,4.000000,4.000000,4.000000,4.000000,4.000000,4.000000,2.000000,4.000000,4.000000,1.000000,41.666668
1601229075.069115,105.000000,0.000000,3928.718018,4602.563965,4148.717773,4305.128418,4010.256348,4636.922852,3935.384521,3872.820557,4347.692383,3973.846191,4387.179688,4162.051270,4115.897461,3933.846191,329.000000,4.000000,,,,0.000000,2.000000,4.000000,4.000000,4.000000,4.000000,4.000000,4.000000,4.000000,4.000000,4.000000,2.000000,4.000000,4.000000,1.000000,41.666668
1601229075.076935,106.000000,0.000000,3922.564209,4602.051270,4141.538574,4303.077148,4010.256348,4627.692383,3931.794922,3869.230713,4336.922852,3961.025635,4374.358887,4151.282227,4106.666504,3931.281982,432.000000,4.000000,,,,0.000000,2.000000,4.000000,4.000000,4.000000,4.000000,4.000000,4.000000,4.000000,4.000000,4.000000,2.000000,4.000000,4.000000,1.000000,41.666668
1601229075.084656,107.000000,0.000000,3921.025635,4606.666504,4142.563965,4298.461426,4006.666748,4624.102539,3926.666748,3869.230713,4331.282227,3956.410156,4373.846191,4151.282227,4108.717773,3934.358887,67.000000,4.000000,,,,0.000000,2.000000,4.000000,4.000000,4.000000,4.000000,4.000000,4.000000,4.000000,4.000000,4.000000,2.000000,4.000000,4.000000,1.000000,41.666668
1601229075.092476,108.000000,0.000000,3923.589844,4610.769043,4146.153809,4301.025879,4005.641113,4628.205078,3926.153809,3870.769287,4337.948730,3964.102539,4376.922852,4157.948730,4115.897461,3933.846191,243.000000,4.000000,,,,0.000000,2.000000,4.000000,4.000000,4.000000,4.000000,4.000000,4.000000,4.000000,4.000000,4.000000,2.000000,4.000000,4.000000,1.000000,41.666668
1601229075.100197,109.000000,0.000000,3926.666748,4610.256348,4142.563965,4302.051270,4013.333252,4630.256348,3930.256348,3872.820557,4345.641113,3970.256348,4372.820313,4157.948730,4119.487305,3932.820557,329.000000,4.000000,,,,0.000000,2.000000,4.000000,4.000000,4.000000,4.000000,4.000000,4.000000,4.000000,4.000000,4.000000,2.000000,4.000000,4.000000,1.000000,41.666668
1601229075.108017,110.000000,0.000000,3925.641113,4607.179688,4142.051270,4300.512695,4014.871826,4625.128418,3925.128174,3873.846191,4342.051270,3966.666748,4368.205078,4156.410156,4118.461426,3935.897461,432.000000,4.000000,,,,0.000000,2.000000,4.000000,4.000000,4.000000,4.000000,4.000000,4.000000,4.000000,4.000000,4.000000,2.000000,4.000000,4.000000,1.000000,41.666668
1601229075.115737,111.000000,0.000000,3920.512939,4603.589844,4144.102539,4299.487305,4005.641113,4615.384766,3915.897461,3871.281982,4336.922852,3962.564209,4369.230957,4154.358887,4114.871582,3932.820557,67.000000,4.000000,,,,0.000000,2.000000,4.000000,4.000000,4.000000,4.000000,4.000000,4.000000,4.000000,4.000000,4.000000,2.000000,4.000000,4.000000,1.000000,41.666668
1601229075.123658,112.000000,0.000000,3918.461426,4602.563965,4138.974121,4302.563965,4006.153809,4622.051270,3922.564209,3873.846191,4344.102539,3970.256348,4373.333496,4153.846191,4116.922852,3931.281982,243.000000,4.000000,,,,0.000000,2.000000,4.000000,4.000000,4.000000,4.000000,4.000000,4.000000,4.000000,4.000000,4.000000,2.000000,4.000000,4.000000,1.000000,41.666668
1601229075.131479,113.000000,0.000000,3924.615479,4604.615234,4139.487305,4302.563965,4017.435791,4643.077148,3940.000000,3884.615479,4353.846191,3984.102539,4380.512695,4165.128418,4123.077148,3935.384521,329.000000,4.000000,,,,0.000000,2.000000,4.000000,4.000000,4.000000,4.000000,4.000000,4.000000,4.000000,4.000000,4.000000,2.000000,4.000000,4.000000,1.000000,41.666668
1601229075.139399,114.000000,0.000000,3929.230713,4605.641113,4150.256348,4292.307617,4015.897461,4647.179688,3941.538574,3887.692383,4357.948730,3988.205078,4388.205078,4170.256348,4125.641113,3937.435791,432.000000,4.000000,,,,0.000000,2.000000,4.000000,4.000000,4.000000,4.000000,4.000000,4.000000,4.000000,4.000000,4.000000,2.000000,4.000000,4.000000,1.000000,41.666668
1601229075.147220,115.000000,0.000000,3920.512939,4606.666504,4149.743652,4292.307617,4009.230713,4637.436035,3933.333252,3881.025635,4354.871582,3982.564209,4386.153809,4160.000000,4123.077148,3935.897461,67.000000,4.000000,,,,0.000000,2.000000,4.000000,4.000000,4.000000,4.000000,4.000000,4.000000,4.000000,4.000000,4.000000,2.000000,4.000000,4.000000,1.000000,41.666668
1601229075.155140,116.000000,0.000000,3915.384521,4603.589844,4137.436035,4306.666504,4009.743652,4631.282227,3931.281982,3874.871826,4345.128418,3973.333252,4374.871582,4152.307617,4114.871582,3935.384521,243.000000,4.000000,,,,0.000000,2.000000,4.000000,4.000000,4.000000,4.000000,4.000000,4.000000,4.000000,4.000000,4.000000,2.000000,4.000000,4.000000,1.000000,41.666668
1601229075.162961,117.000000,0.000000,3920.000000,4595.384766,4140.512695,4306.153809,4002.564209,4627.692383,3930.769287,3872.820557,4335.897461,3968.718018,4369.230957,4153.846191,4104.102539,3937.435791,329.000000,4.000000,,,,0.000000,2.000000,4.000000,4.000000,4.000000,4.000000,4.000000,4.000000,4.000000,4.000000,4.000000,2.000000,4.000000,4.000000,1.000000,41.666668
1601229075.170881,118.000000,0.000000,3916.923096,4590.256348,4143.589844,4298.461426,3995.384521,4626.153809,3930.769287,3871.281982,4335.384766,3969.230713,4371.794922,4153.333496,4101.025879,3941.538574,432.000000,4.000000,,,,0.000000,2.000000,4.000000,4.000000,4.000000,4.000000,4.000000,4.000000,4.000000,4.000000,4.000000,2.000000,4.000000,4.000000,1.000000,41.666668
1601229075.178701,119.000000,0.000000,3905.641113,4593.333496,4132.820313,4304.615234,4004.102539,4629.230957,3932.307617,3870.769287,4336.922852,3967.179443,4373.846191,4152.307617,4104.615234,3941.538574,67.000000,4.000000,,,,0.000000,2.000000,4.000000,4.000000,4.000000,4.000000,4.000000,4.000000,4.000000,4.000000,4.000000,2.000000,4.000000,4.000000,1.000000,41.666668
1601229075.186622,120.000000,0.000000,3906.153809,4595.384766,4131.282227,4303.077148,4008.205078,4626.666504,3926.153809,3871.794922,4334.871582,3962.564209,4370.256348,4153.333496,4097.948730,3939.487061,243.000000,4.000000,,,,0.000000,2.000000,4.000000,4.000000,4.000000,4.000000,4.000000,4.000000,4.000000,4.000000,4.000000,2.000000,4.000000,4.000000,1.000000,41.666668
1601229075.194442,121.000000,0.000000,3914.871826,4589.230957,4137.948730,4297.436035,3998.461426,4625.128418,3920.512939,3874.871826,4338.461426,3967.179443,4372.307617,4152.820313,4098.461426,3938.974365,329.000000,4.000000,,,,0.000000,2.000000,4.000000,4.000000,4.000000,4.000000,4.000000,4.000000,4.000000,4.000000,4.000000,2.000000,4.000000,4.000000,1.000000,41.666668
1601229075.202362,122.000000,0.000000,3916.410156,4589.230957,4134.358887,4308.717773,3995.897461,4631.282227,3929.743652,3877.435791,4344.615234,3973.846191,4377.436035,4155.384766,4110.256348,3943.076904,432.000000,4.000000,,,,0.000000,2.000000,4.000000,4.000000,4.000000,4.000000,4.000000,4.000000,4.000000,4.000000,4.000000,2.000000,4.000000,4.000000,1.000000,41.666668
1601229075.210183,123.000000,0.000000,3912.820557,4601.025879,4130.769043,4313.846191,4001.538574,4629.743652,3932.820557,3874.358887,4343.589844,3968.718018,4372.307617,4153.846191,4106.666504,3945.128174,67.000000,4.000000,,,,0.000000,2.000000,4.000000,4.000000,4.000000,4.000000,4.000000,4.000000,4.000000,4.000000,4.000000,2.000000,4.000000,4.000000,1.000000,41.666668
1601229075.217903,124.000000,0.000000,3913.333252,4602.051270,4132.307617,4306.153809,4003.589844,4621.538574,3921.538574,3870.769287,4337.948730,3960.000000,4367.692383,4147.179688,4094.871826,3946.153809,243.000000,4.000000,,,,0.000000,2.000000,4.000000,4.000000,4.000000,4.000000,4.000000,4.000000,4.000000,4.000000,4.000000,2.000000,4.000000,4.000000,1.000000,41.666668
1601229075.225724,125.000000,0.000000,3916.923096,4593.333496,4136.410156,4301.025879,3999.487061,4621.025879,3920.512939,3870.769287,4335.384766,3960.512939,4371.794922,4149.230957,4096.922852,3945.128174,329.000000,4.000000,,,,0.000000,2.000000,4.000000,4.000000,4.000000,4.000000,4.000000,4.000000,4.000000,4.000000,4.000000,2.000000,4.000000,4.000000,1.000000,41.666668
1601229075.233444,126.000000,0.000000,3914.871826,4591.282227,4137.436035,4301.025879,3991.281982,4622.563965,3923.589844,3870.769287,4334.358887,3960.512939,4371.282227,4153.846191,4097.436035,3943.589844,432.000000,4.000000,,,,0.000000,2.000000,4.000000,4.000000,4.000000,4.000000,4.000000,4.000000,4.000000,4.000000,4.000000,2.000000,4.000000,4.000000,1.000000,41.666668
1601229075.241264,127.000000,0.000000,3913.333252,4593.333496,4137.436035,4301.025879,3994.358887,4621.025879,3920.512939,3871.281982,4335.897461,3961.538574,4370.769043,4154.358887,4096.922852,3946.153809,67.000000,4.000000,,,,0.000000,2.000000,4.000000,4.000000,4.000000,4.000000,4.000000,4.000000,4.000000,4.000000,4.000000,2.000000,4.000000,4.000000,1.000000,41.666668
1601229075.248985,128.000000,0.000000,3913.846191,4580.512695,4140.000000,4291.794922,3998.974365,4621.025879,3919.487061,3872.820557,4334.358887,3965.128174,4376.410156,4154.358887,4097.948730,3949.743652,243.000000,4.000000,,,,0.000000,2.000000,4.000000,4.000000,4.000000,4.000000,4.000000,4.000000,4.000000,4.000000,4.000000,2.000000,4.000000,4.000000,1.000000,41.666668
1601229075.256805,0.000000,0.000000,3909.743652,4570.256348,4137.948730,4285.128418,3986.153809,4618.461426,3918.461426,3871.281982,4326.666504,3957.948730,4370.769043,4154.358887,4085.128174,3945.641113,363.000000,4.000000,,,,0.000000,2.000000,4.000000,4.000000,4.000000,4.000000,4.000000,4.000000,4.000000,4.000000,4.000000,2.000000,4.000000,4.000000,1.000000,41.666668
1601229075.264526,1.000000,0.000000,3907.179443,4585.641113,4130.769043,4296.922852,3981.538574,4617.436035,3917.948730,3869.230713,4326.153809,3947.179443,4361.538574,4150.769043,4080.512939,3943.076904,437.000000,4.000000,,,,0.000000,2.000000,4.000000,4.000000,4.000000,4.000000,4.000000,4.000000,4.000000,4.000000,4.000000,2.000000,4.000000,4.000000,1.000000,41.666668
1601229075.272346,2.000000,0.000000,3909.230713,4602.563965,4127.692383,4302.051270,3993.846191,4619.487305,3918.974365,3869.743652,4330.256348,3947.692383,4365.641113,4147.692383,4094.871826,3947.179443,371.000000,4.000000,,,,0.000000,2.000000,4.000000,4.000000,4.000000,4.000000,4.000000,4.000000,4.000000,4.000000,4.000000,2.000000,4.000000,4.000000,1.000000,41.666668
1601229075.280067,3.000000,0.000000,3905.128174,4591.282227,4126.666504,4289.230957,3995.897461,4621.025879,3919.487061,3870.769287,4332.307617,3955.384521,4373.333496,4149.230957,4105.128418,3945.128174,437.000000,4.000000,,,,0.000000,2.000000,4.000000,4.000000,4.000000,4.000000,4.000000,4.000000,4.000000,4.000000,4.000000,2.000000,4.000000,4.000000,1.000000,41.666668
1601229075.287887,4.000000,0.000000,3902.051270,4572.820313,4126.666504,4291.794922,3989.743652,4624.102539,3921.025635,3873.333252,4336.922852,3963.076904,4378.974121,4152.307617,4108.717773,3942.564209,458.000000,4.000000,,,,0.000000,2.000000,4.000000,4.000000,4.000000,4.000000,4.000000,4.000000,4.000000,4.000000,4.000000,2.000000,4.000000,4.000000,1.000000,41.666668
1601229075.295607,5.000000,0.000000,3909.230713,4579.487305,4127.179688,4303.589844,3996.410156,4623.589844,3920.512939,3874.871826,4342.563965,3972.307617,4385.641113,4154.871582,4113.846191,3948.205078,432.000000,4.000000,,,,0.000000,2.000000,4.000000,4.000000,4.000000,4.000000,4.000000,4.000000,4.000000,4.000000,4.000000,2.000000,4.000000,4.000000,1.000000,41.666668
1601229075.303428,6.000000,0.000000,3915.384521,4593.846191,4127.179688,4297.436035,4001.025635,4617.948730,3920.000000,3873.846191,4343.589844,3972.820557,4389.743652,4154.871582,4112.307617,3949.743652,445.000000,4.000000,,,,0.000000,2.000000,4.000000,4.000000,4.000000,4.000000,4.000000,4.000000,4.000000,4.000000,4.000000,2.000000,4.000000,4.000000,1.000000,41.666668
1601229075.311148,7.000000,0.000000,3916.410156,4597.948730,4133.333496,4295.384766,3995.384521,4619.487305,3927.692383,3874.358887,4346.666504,3972.820557,4390.769043,4154.358887,4113.846191,3946.666748,353.000000,4.000000,,,,0.000000,2.000000,4.000000,4.000000,4.000000,4.000000,4.000000,4.000000,4.000000,4.000000,4.000000,2.000000,4.000000,4.000000,1.000000,41.666668
1601229075.319069,8.000000,0.000000,3912.307617,4593.333496,4140.000000,4298.974121,3995.897461,4622.563965,3926.666748,3871.794922,4344.615234,3975.897461,4390.769043,4154.871582,4117.948730,3946.666748,408.000000,4.000000,,,,0.000000,2.000000,4.000000,4.000000,4.000000,4.000000,4.000000,4.000000,4.000000,4.000000,4.000000,2.000000,4.000000,4.000000,1.000000,41.666668
1601229075.326889,9.000000,0.000000,3909.743652,4587.692383,4136.410156,4298.461426,4000.000000,4617.436035,3913.846191,3868.205078,4336.410156,3968.205078,4386.666504,4150.256348,4110.769043,3948.718018,408.000000,4.000000,,,,0.000000,2.000000,4.000000,4.000000,4.000000,4.000000,4.000000,4.000000,4.000000,4.000000,4.000000,2.000000,4.000000,4.000000,1.000000,41.666668
1601229075.334810,10.000000,0.000000,3911.281982,4590.769043,4131.794922,4297.436035,3994.871826,4611.282227,3911.794922,3869.230713,4330.256348,3958.974365,4385.641113,4145.641113,4104.615234,3947.692383,432.000000,4.000000,,,,0.000000,2.000000,4.000000,4.000000,4.000000,4.000000,4.000000,4.000000,4.000000,4.000000,4.000000,2.000000,4.000000,4.000000,1.000000,41.666668
1601229075.342630,11.000000,0.000000,3909.743652,4592.820313,4136.922852,4289.743652,3987.692383,4611.282227,3917.948730,3868.718018,4327.179688,3962.051270,4388.205078,4147.179688,4103.589844,3943.076904,67.000000,4.000000,,,,0.000000,2.000000,4.000000,4.000000,4.000000,4.000000,4.000000,4.000000,4.000000,4.000000,4.000000,2.000000,4.000000,4.000000,1.000000,41.666668
1601229075.350551,12.000000,0.000000,3912.307617,4585.641113,4142.051270,4285.128418,3993.846191,4615.384766,3916.923096,3867.692383,4325.128418,3966.666748,4387.692383,4154.358887,4103.077148,3941.538574,243.000000,4.000000,,,,0.000000,2.000000,4.000000,4.000000,4.000000,4.000000,4.000000,4.000000,4.000000,4.000000,4.000000,2.000000,4.000000,4.000000,1.000000,41.666668
1601229075.358372,13.000000,0.000000,3918.461426,4588.205078,4141.025879,4296.922852,3997.435791,4616.410156,3910.769287,3868.718018,4325.641113,3962.564209,4389.230957,4155.897461,4106.666504,3944.102539,329.000000,4.000000,,,,0.000000,2.000000,4.000000,4.000000,4.000000,4.000000,4.000000,4.000000,4.000000,4.000000,4.000000,2.000000,4.000000,4.000000,1.000000,41.666668
1601229075.366292,14.000000,0.000000,3915.384521,4604.102539,4136.922852,4308.205078,3994.358887,4617.948730,3909.743652,3868.205078,4333.333496,3963.589844,4391.794922,4153.333496,4110.769043,3945.128174,432.000000,4.000000,,,,0.000000,2.000000,4.000000,4.000000,4.000000,4.000000,4.000000,4.000000,4.000000,4.000000,4.000000,2.000000,4.000000,4.000000,1.000000,41.666668
1601229075.374112,15.000000,0.000000,3914.871826,4612.307617,4141.025879,4307.692383,4002.051270,4625.641113,3921.538574,3870.256348,4341.025879,3974.358887,4392.820313,4159.487305,4115.384766,3946.153809,67.000000,4.000000,,,,0.000000,2.000000,4.000000,4.000000,4.000000,4.000000,4.000000,4.000000,4.000000,4.000000,4.000000,2.000000,4.000000,4.000000,1.000000,41.666668
1601229075.382032,16.000000,0.000000,3923.589844,4611.282227,4147.179688,4303.077148,4010.769287,4628.717773,3932.820557,3873.333252,4340.000000,3977.948730,4395.897461,4165.128418,4120.512695,3948.718018,0.000000,4.000000,,,,0.000000,2.000000,4.000000,4.000000,4.000000,4.000000,4.000000,4.000000,4.000000,4.000000,4.000000,2.000000,4.000000,4.000000,1.000000,41.666668
1601229075.389853,17.000000,0.000000,3923.589844,4610.769043,4140.512695,4298.461426,4002.564209,4622.051270,3926.666748,3871.281982,4333.333496,3968.205078,4395.897461,4156.410156,4117.436035,3945.641113,0.000000,4.000000,,,,0.000000,2.000000,4.000000,4.000000,4.000000,4.000000,4.000000,4.000000,4.000000,4.000000,4.000000,2.000000,4.000000,4.000000,1.000000,41.666668
1601229075.397773,18.000000,0.000000,3918.974365,4607.692383,4136.410156,4302.051270,3996.923096,4622.051270,3922.051270,3869.743652,4333.846191,3964.102539,4394.358887,4151.282227,4111.282227,3942.051270,0.000000,4.000000,,,,0.000000,2.000000,4.000000,4.000000,4.000000,4.000000,4.000000,4.000000,4.000000,4.000000,4.000000,2.000000,4.000000,4.000000,1.000000,41.666668
1601229075.405593,19.000000,0.000000,3922.564209,4609.230957,4141.538574,4313.846191,4009.230713,4627.179688,3929.743652,3872.820557,4341.538574,3970.769287,4394.871582,4162.563965,4114.358887,3944.615479,0.000000,4.000000,,,,0.000000,2.000000,4.000000,4.000000,4.000000,4.000000,4.000000,4.000000,4.000000,4.000000,4.000000,2.000000,4.000000,4.000000,1.000000,41.666668
1601229075.413314,20.000000,0.000000,3921.025635,4614.871582,4137.948730,4310.256348,4010.769287,4626.666504,3933.333252,3875.384521,4344.615234,3973.846191,4397.948730,4164.615234,4124.615234,3945.641113,0.000000,4.000000,,,,0.000000,2.000000,4.000000,4.000000,4.000000,4.000000,4.000000,4.000000,4.000000,4.000000,4.000000,2.000000,4.000000,4.000000,1.000000,41.666668
1601229075.421134,21.000000,0.000000,3912.307617,4607.692383,4133.846191,4297.436035,3993.333252,4622.051270,3925.128174,3873.846191,4340.000000,3971.281982,4398.461426,4160.000000,4125.641113,3943.589844,0.000000,4.000000,,,,0.000000,2.000000,4.000000,4.000000,4.000000,4.000000,4.000000,4.000000,4.000000,4.000000,4.000000,2.000000,4.000000,4.000000,1.000000,41.666668
1601229075.428855,22.000000,0.000000,3909.230713,4602.051270,4136.922852,4298.974121,3986.153809,4617.948730,3919.487061,3870.769287,4334.871582,3967.692383,4397.948730,4160.512695,4116.922852,3945.641113,0.000000,4.000000,,,,0.000000,2.000000,4.000000,4.000000,4.000000,4.000000,4.000000,4.000000,4.000000,4.000000,4.000000,2.000000,4.000000,4.000000,1.000000,41.666668
1601229075.436675,23.000000,0.000000,3911.794922,4610.256348,4135.897461,4304.102539,3995.897461,4621.025879,3925.641113,3869.230713,4333.846191,3967.179443,4396.410156,4156.410156,4109.743652,3958.461426,0.000000,4.000000,,,,0.000000,2.000000,4.000000,4.000000,4.000000,4.000000,4.000000,4.000000,4.000000,4.000000,4.000000,2.000000,4.000000,4.000000,1.000000,41.666668
1601229075.444396,24.000000,0.000000,3916.410156,4615.384766,4135.897461,4300.000000,4008.205078,4629.230957,3932.820557,3873.333252,4337.948730,3971.281982,4395.384766,4153.333496,4110.256348,3963.076904,0.000000,4.000000,,,,0.000000,2.000000,4.000000,4.000000,4.000000,4.000000,4.000000,4.000000,4.000000,4.000000,4.000000,2.000000,4.000000,4.000000,1.000000,41.666668
1601229075.452216,25.000000,0.000000,3917.435791,4609.230957,4139.487305,4295.384766,4006.666748,4627.692383,3926.666748,3875.384521,4340.512695,3971.281982,4395.897461,4155.897461,4111.794922,3950.769287,0.000000,4.000000,,,,0.000000,2.000000,4.000000,4.000000,4.000000,4.000000,4.000000,4.000000,4.000000,4.000000,4.000000,2.000000,4.000000,4.000000,1.000000,41.666668
1601229075.459936,26.000000,0.000000,3915.897461,4611.282227,4138.461426,4301.025879,4000.000000,4624.615234,3923.076904,3874.358887,4343.589844,3976.923096,4402.051270,4160.000000,4120.000000,3946.153809,0.000000,4.000000,,,,0.000000,2.000000,4.000000,4.000000,4.000000,4.000000,4.000000,4.000000,4.000000,4.000000,4.000000,2.000000,4.000000,4.000000,1.000000,41.666668
1601229075.467757,27.000000,0.000000,3915.384521,4615.897461,4135.897461,4305.128418,3998.461426,4626.666504,3929.743652,3876.923096,4353.333496,3987.179443,4409.230957,4166.666504,4129.230957,3952.307617,0.000000,4.000000,,,,0.000000,2.000000,4.000000,4.000000,4.000000,4.000000,4.000000,4.000000,4.000000,4.000000,4.000000,2.000000,4.000000,4.000000,1.000000,41.666668
1601229075.475477,28.000000,0.000000,3918.461426,4610.256348,4138.974121,4298.974121,4000.512939,4627.179688,3931.281982,3878.974365,4355.897461,3988.205078,4408.205078,4169.743652,4124.615234,3951.281982,0.000000,4.000000,,,,0.000000,2.000000,4.000000,4.000000,4.000000,4.000000,4.000000,4.000000,4.000000,4.000000,4.000000,2.000000,4.000000,4.000000,1.000000,41.666668
1601229075.483398,29.000000,0.000000,3918.974365,4610.769043,4141.538574,4298.974121,4002.051270,4624.102539,3926.666748,3877.948730,4347.179688,3982.051270,4403.589844,4161.538574,4119.487305,3947.179443,0.000000,4.000000,,,,0.000000,2.000000,4.000000,4.000000,4.000000,4.000000,4.000000,4.000000,4.000000,4.000000,4.000000,2.000000,4.000000,4.000000,1.000000,41.666668
1601229075.491218,30.000000,0.000000,3916.410156,4615.384766,4137.436035,4304.102539,4005.641113,4624.102539,3927.692383,3876.410156,4344.615234,3982.564209,4404.102539,4157.436035,4118.974121,3950.769287,0.000000,4.000000,,,,0.000000,2.000000,4.000000,4.000000,4.000000,4.000000,4.000000,4.000000,4.000000,4.000000,4.000000,2.000000,4.000000,4.000000,1.000000,41.666668
1601229075.499139,31.000000,0.000000,3912.820557,4607.692383,4132.307617,4297.948730,4002.564209,4625.128418,3929.743652,3875.384521,4352.307617,3986.666748,4406.153809,4158.461426,4116.922852,3952.307617,0.000000,4.000000,,,,0.000000,2.000000,4.000000,4.000000,4.000000,4.000000,4.000000,4.000000,4.000000,4.000000,4.000000,2.000000,4.000000,4.000000,1.000000,41.666668
1601229075.506959,32.000000,0.000000,3909.230713,4605.641113,4131.282227,4296.922852,3998.974365,4626.153809,3928.205078,3878.461426,4356.410156,3987.692383,4407.692383,4154.358887,4118.974121,3946.666748,0.000000,4.000000,,,,0.000000,2.000000,4.000000,4.000000,4.000000,4.000000,4.000000,4.000000,4.000000,4.000000,4.000000,2.000000,4.000000,4.000000,1.000000,41.666668
1601229075.514880,33.000000,0.000000,3908.718018,4616.410156,4130.769043,4304.615234,4014.358887,4631.282227,3932.307617,3887.692383,4358.461426,3990.256348,4408.205078,4152.820313,4122.563965,3943.589844,0.000000,4.000000,,,,0.000000,2.000000,4.000000,4.000000,4.000000,4.000000,4.000000,4.000000,4.000000,4.000000,4.000000,2.000000,4.000000,4.000000,1.000000,41.666668
1601229075.522701,34.000000,0.000000,3907.179443,4612.307617,4128.717773,4296.410156,4018.974365,4635.897461,3941.538574,3890.256348,4361.538574,3989.230713,4407.692383,4154.358887,4117.436035,3946.153809,0.000000,4.000000,,,,0.000000,2.000000,4.000000,4.000000,4.000000,4.000000,4.000000,4.000000,4.000000,4.000000,4.000000,2.000000,4.000000,4.000000,1.000000,41.666668
1601229075.530621,35.000000,0.000000,3908.205078,4605.128418,4127.692383,4280.512695,3995.897461,4640.000000,3944.102539,3884.102539,4362.051270,3982.564209,4410.256348,4155.384766,4117.436035,3948.205078,0.000000,4.000000,,,,0.000000,2.000000,4.000000,4.000000,4.000000,4.000000,4.000000,4.000000,4.000000,4.000000,4.000000,2.000000,4.000000,4.000000,1.000000,41.666668
1601229075.538442,36.000000,0.000000,3917.435791,4607.179688,4132.820313,4283.589844,3983.076904,4637.948730,3936.923096,3877.435791,4357.948730,3976.923096,4410.769043,4153.333496,4121.538574,3946.153809,0.000000,4.000000,,,,0.000000,2.000000,4.000000,4.000000,4.000000,4.000000,4.000000,4.000000,4.000000,4.000000,4.000000,2.000000,4.000000,4.000000,1.000000,41.666668
1601229075.546362,37.000000,0.000000,3921.025635,4609.230957,4132.820313,4296.410156,3994.358887,4629.743652,3930.769287,3876.923096,4351.794922,3975.897461,4406.666504,4150.769043,4113.333496,3946.153809,0.000000,4.000000,,,,0.000000,2.000000,4.000000,4.000000,4.000000,4.000000,4.000000,4.000000,4.000000,4.000000,4.000000,2.000000,4.000000,4.000000,1.000000,41.666668
1601229075.554182,38.000000,0.000000,3914.871826,4609.230957,4128.717773,4300.512695,4001.025635,4620.000000,3923.589844,3874.358887,4345.641113,3972.820557,4404.615234,4149.230957,4103.589844,3948.205078,0.000000,4.000000,,,,0.000000,2.000000,4.000000,4.000000,4.000000,4.000000,4.000000,4.000000,4.000000,4.000000,4.000000,2.000000,4.000000,4.000000,1.000000,41.666668
1601229075.562103,39.000000,0.000000,3914.358887,4606.666504,4133.846191,4297.436035,3994.871826,4614.871582,3915.897461,3870.769287,4342.051270,3970.256348,4404.615234,4150.769043,4105.128418,3942.051270,0.000000,4.000000,,,,0.000000,2.000000,4.000000,4.000000,4.000000,4.000000,4.000000,4.000000,4.000000,4.000000,4.000000,2.000000,4.000000,4.000000,1.000000,41.666668
1601229075.569923,40.000000,0.000000,3918.461426,4605.128418,4141.025879,4297.436035,3992.820557,4622.563965,3919.487061,3875.897461,4349.743652,3976.923096,4409.230957,4153.333496,4116.410156,3940.000000,0.000000,4.000000,,,,0.000000,2.000000,4.000000,4.000000,4.000000,4.000000,4.000000,4.000000,4.000000,4.000000,4.000000,2.000000,4.000000,4.000000,1.000000,41.666668
1601229075.577843,41.000000,0.000000,3920.512939,4614.871582,4136.922852,4299.487305,4001.538574,4631.282227,3930.256348,3885.128174,4362.051270,3987.179443,4421.538574,4155.384766,4127.692383,3947.692383,0.000000,4.000000,,,,0.000000,2.000000,4.000000,4.000000,4.000000,4.000000,4.000000,4.000000,4.000000,4.000000,4.000000,2.000000,4.000000,4.000000,1.000000,41.666668
1601229075.585664,42.000000,0.000000,3922.564209,4612.307617,4135.897461,4291.282227,4003.076904,4626.153809,3931.794922,3887.179443,4364.102539,3989.743652,4425.641113,4160.512695,4123.077148,3950.769287,0.000000,4.000000,,,,0.000000,2.000000,4.000000,4.000000,4.000000,4.000000,4.000000,4.000000,4.000000,4.000000,4.000000,2.000000,4.000000,4.000000,1.000000,41.666668
1601229075.593384,43.000000,0.000000,3926.666748,4601.025879,4145.641113,4293.333496,4000.512939,4624.102539,3935.897461,3887.179443,4365.128418,3991.794922,4421.538574,4169.230957,4120.512695,3949.230713,0.000000,4.000000,,,,0.000000,2.000000,4.000000,4.000000,4.000000,4.000000,4.000000,4.000000,4.000000,4.000000,4.000000,2.000000,4.000000,4.000000,1.000000,41.666668
1601229075.601204,44.000000,0.000000,3930.256348,4612.820313,4144.615234,4309.743652,4011.281982,4633.846191,3946.153809,3892.307617,4373.333496,3995.897461,4425.128418,4170.769043,4131.282227,3952.307617,0.000000,4.000000,,,,0.000000,2.000000,4.000000,4.000000,4.000000,4.000000,4.000000,4.000000,4.000000,4.000000,4.000000,2.000000,4.000000,4.000000,1.000000,41.666668
1601229075.608925,45.000000,0.000000,3927.179443,4625.641113,4134.871582,4311.282227,4018.974365,4638.974121,3943.076904,3890.769287,4371.794922,3990.769287,4426.153809,4160.000000,4131.794922,3950.256348,0.000000,4.000000,,,,0.000000,2.000000,4.000000,4.000000,4.000000,4.000000,4.000000,4.000000,4.000000,4.000000,4.000000,2.000000,4.000000,4.000000,1.000000,41.666668
1601229075.616745,46.000000,0.000000,3917.435791,4620.512695,4135.384766,4297.948730,4009.743652,4632.820313,3933.333252,3883.076904,4358.974121,3980.512939,4417.948730,4151.282227,4121.025879,3943.589844,0.000000,4.000000,,,,0.000000,2.000000,4.000000,4.000000,4.000000,4.000000,4.000000,4.000000,4.000000,4.000000,4.000000,2.000000,4.000000,4.000000,1.000000,41.666668
1601229075.624466,47.000000,0.000000,3914.358887,4615.384766,4141.538574,4290.769043,4004.615479,4627.692383,3934.358887,3879.487061,4352.820313,3980.512939,4415.897461,4151.794922,4120.000000,3944.615479,0.000000,4.000000,,,,0.000000,2.000000,4.000000,4.000000,4.000000,4.000000,4.000000,4.000000,4.000000,4.000000,4.000000,2.000000,4.000000,4.000000,1.000000,41.666668
1601229075.632286,48.000000,0.000000,3916.923096,4608.717773,4138.461426,4291.794922,4005.641113,4624.615234,3935.897461,3882.564209,4356.410156,3985.641113,4418.974121,4154.871582,4120.512695,3946.666748,0.000000,4.000000,,,,0.000000,2.000000,4.000000,4.000000,4.000000,4.000000,4.000000,4.000000,4.000000,4.000000,4.000000,2.000000,4.000000,4.000000,1.000000,41.666668
1601229075.640007,49.000000,0.000000,3913.333252,4604.615234,4130.256348,4297.436035,3998.974365,4616.922852,3926.666748,3883.076904,4353.333496,3980.000000,4416.410156,4150.769043,4113.333496,3943.076904,0.000000,4.000000,,,,0.000000,2.000000,4.000000,4.000000,4.000000,4.000000,4.000000,4.000000,4.000000,4.000000,4.000000,2.000000,4.000000,4.000000,1.000000,41.666668
1601229075.647827,50.000000,0.000000,3912.307617,4618.461426,4131.794922,4305.128418,4005.128174,4617.948730,3925.641113,3881.538574,4349.230957,3979.487061,4421.538574,4151.282227,4121.538574,3943.076904,0.000000,4.000000,,,,0.000000,2.000000,4.000000,4.000000,4.000000,4.000000,4.000000,4.000000,4.000000,4.000000,4.000000,2.000000,4.000000,4.000000,1.000000,41.666668
1601229075.655547,51.000000,0.000000,3925.641113,4631.794922,4142.563965,4306.153809,4018.974365,4632.307617,3938.461426,3886.153809,4358.461426,3992.307617,4434.358887,4165.128418,4139.487305,3949.743652,0.000000,4.000000,,,,0.000000,2.000000,4.000000,4.000000,4.000000,4.000000,4.000000,4.000000,4.000000,4.000000,4.000000,2.000000,4.000000,4.000000,1.000000,41.666668
1601229075.663368,52.000000,0.000000,3937.435791,4629.230957,4150.256348,4311.282227,4015.897461,4640.512695,3941.538574,3889.743652,4366.666504,4001.538574,4442.051270,4173.846191,4146.153809,3953.846191,0.000000,4.000000,,,,0.000000,2.000000,4.000000,4.000000,4.000000,4.000000,4.000000,4.000000,4.000000,4.000000,4.000000,2.000000,4.000000,4.000000,1.000000,41.666668
1601229075.671088,53.000000,0.000000,3935.897461,4623.589844,4151.282227,4312.820313,4003.589844,4635.384766,3934.871826,3887.692383,4358.974121,3998.461426,4442.563965,4173.333496,4142.563965,3953.333252,0.000000,4.000000,,,,0.000000,2.000000,4.000000,4.000000,4.000000,4.000000,4.000000,4.000000,4.000000,4.000000,4.000000,2.000000,4.000000,4.000000,1.000000,41.666668
1601229075.679009,54.000000,0.000000,3926.153809,4613.333496,4147.179688,4293.333496,3998.461426,4632.307617,3935.897461,3885.641113,4351.794922,3986.666748,4436.410156,4167.179688,4131.794922,3952.307617,0.000000,4.000000,,,,0.000000,2.000000,4.000000,4.000000,4.000000,4.000000,4.000000,4.000000,4.000000,4.000000,4.000000,2.000000,4.000000,4.000000,1.000000,41.666668
1601229075.686829,55.000000,0.000000,3913.333252,4594.358887,4137.436035,4275.384766,3994.358887,4627.179688,3940.512939,3887.692383,4353.846191,3973.846191,4426.153809,4160.000000,4120.000000,3948.205078,0.000000,4.000000,,,,0.000000,2.000000,4.000000,4.000000,4.000000,4.000000,4.000000,4.000000,4.000000,4.000000,4.000000,2.000000,4.000000,4.000000,1.000000,41.666668
1601229075.694750,56.000000,0.000000,3908.205078,4591.282227,4135.897461,4282.051270,3995.897461,4629.743652,3946.666748,3892.307617,4360.512695,3973.846191,4425.128418,4158.974121,4116.410156,3943.589844,0.000000,4.000000,,,,0.000000,2.000000,4.000000,4.000000,4.000000,4.000000,4.000000,4.000000,4.000000,4.000000,4.000000,2.000000,4.000000,4.000000,1.000000,41.666668
1601229075.702570,57.000000,0.000000,3916.923096,4606.153809,4140.512695,4294.871582,4004.615479,4647.179688,3957.948730,3896.410156,4368.717773,3982.051270,4432.307617,4165.128418,4121.025879,3942.564209,0.000000,4.000000,,,,0.000000,2.000000,4.000000,4.000000,4.000000,4.000000,4.000000,4.000000,4.000000,4.000000,4.000000,2.000000,4.000000,4.000000,1.000000,41.666668
1601229075.710491,58.000000,0.000000,3926.666748,4614.871582,4137.436035,4295.897461,4000.000000,4642.563965,3950.256348,3889.230713,4363.589844,3975.384521,4433.846191,4161.538574,4120.000000,3942.051270,0.000000,4.000000,,,,0.000000,2.000000,4.000000,4.000000,4.000000,4.000000,4.000000,4.000000,4.000000,4.000000,4.000000,2.000000,4.000000,4.000000,1.000000,41.666668
1601229075.718312,59.000000,0.000000,3925.128174,4618.461426,4136.922852,4296.410156,3991.794922,4613.333496,3922.564209,3873.333252,4343.589844,3962.051270,4429.743652,4153.333496,4114.358887,3943.076904,0.000000,4.000000,,,,0.000000,2.000000,4.000000,4.000000,4.000000,4.000000,4.000000,4.000000,4.000000,4.000000,4.000000,2.000000,4.000000,4.000000,1.000000,41.666668
1601229075.726232,60.000000,0.000000,3925.641113,4625.641113,4142.563965,4301.538574,4001.538574,4611.794922,3915.384521,3867.179443,4333.846191,3965.641113,4432.820313,4157.948730,4117.948730,3946.153809,0.000000,4.000000,,,,0.000000,2.000000,4.000000,4.000000,4.000000,4.000000,4.000000,4.000000,4.000000,4.000000,4.000000,2.000000,4.000000,4.000000,1.000000,41.666668
1601229075.734053,61.000000,0.000000,3924.102539,4627.692383,4140.000000,4304.615234,4015.897461,4631.282227,3928.205078,3873.846191,4340.512695,3976.923096,4437.436035,4161.025879,4126.153809,3943.589844,0.000000,4.000000,,,,0.000000,2.000000,4.000000,4.000000,4.000000,4.000000,4.000000,4.000000,4.000000,4.000000,4.000000,2.000000,4.000000,4.000000,1.000000,41.666668
1601229075.741973,62.000000,0.000000,3912.820557,4623.589844,4131.282227,4306.153809,4015.384521,4633.333496,3927.692383,3877.948730,4348.205078,3982.051270,4433.333496,4155.897461,4124.102539,3940.000000,0.000000,4.000000,,,,0.000000,2.000000,4.000000,4.000000,4.000000,4.000000,4.000000,4.000000,4.000000,4.000000,4.000000,2.000000,4.000000,4.000000,1.000000,41.666668
1601229075.749793,63.000000,0.000000,3908.205078,4618.974121,4128.717773,4299.487305,4009.230713,4620.000000,3916.923096,3873.846191,4344.615234,3976.410156,4423.589844,4144.615234,4109.230957,3937.435791,0.000000,4.000000,,,,0.000000,2.000000,4.000000,4.000000,4.000000,4.000000,4.000000,4.000000,4.000000,4.000000,4.000000,2.000000,4.000000,4.000000,1.000000,41.666668
1601229075.757514,64.000000,0.000000,3909.230713,4619.487305,4127.179688,4289.230957,4008.718018,4616.410156,3921.025635,3873.333252,4339.487305,3971.281982,4418.461426,4142.051270,4100.512695,3931.794922,363.000000,4.000000,,,,0.000000,2.000000,4.000000,4.000000,4.000000,4.000000,4.000000,4.000000,4.000000,4.000000,4.000000,2.000000,4.000000,4.000000,1.000000,41.666668
1601229075.765334,65.000000,0.000000,3910.769287,4620.000000,4127.179688,4289.743652,4009.230713,4627.692383,3933.846191,3884.102539,4350.256348,3978.974365,4421.538574,4150.256348,4108.205078,3932.820557,437.000000,4.000000,,,,0.000000,2.000000,4.000000,4.000000,4.000000,4.000000,4.000000,4.000000,4.000000,4.000000,4.000000,2.000000,4.000000,4.000000,1.000000,41.666668
1601229075.773055,66.000000,0.000000,3918.461426,4609.230957,4134.358887,4289.743652,4000.000000,4632.820313,3936.923096,3887.692383,4360.000000,3986.153809,4425.128418,4154.358887,4114.358887,3939.487061,371.000000,4.000000,,,,0.000000,2.000000,4.000000,4.000000,4.000000,4.000000,4.000000,4.000000,4.000000,4.000000,4.000000,2.000000,4.000000,4.000000,1.000000,41.666668
1601229075.780875,67.000000,0.000000,3921.538574,4602.563965,4132.307617,4284.615234,3990.769287,4625.128418,3929.743652,3878.461426,4352.307617,3978.974365,4423.077148,4154.358887,4113.333496,3938.461426,437.000000,4.000000,,,,0.000000,2.000000,4.000000,4.000000,4.000000,4.000000,4.000000,4.000000,4.000000,4.000000,4.000000,2.000000,4.000000,4.000000,1.000000,41.666668
1601229075.788595,68.000000,0.000000,3915.384521,4608.717773,4127.179688,4285.641113,3996.410156,4620.000000,3924.615479,3873.846191,4343.077148,3973.846191,4420.512695,4156.410156,4112.307617,3937.435791,458.000000,4.000000,,,,0.000000,2.000000,4.000000,4.000000,4.000000,4.000000,4.000000,4.000000,4.000000,4.000000,4.000000,2.000000,4.000000,4.000000,1.000000,41.666668
1601229075.796416,69.000000,0.000000,3914.871826,4606.666504,4136.410156,4289.230957,4005.128174,4623.589844,3929.743652,3879.487061,4344.102539,3978.974365,4425.641113,4157.436035,4112.820313,3940.512939,432.000000,4.000000,,,,0.000000,2.000000,4.000000,4.000000,4.000000,4.000000,4.000000,4.000000,4.000000,4.000000,4.000000,2.000000,4.000000,4.000000,1.000000,41.666668
1601229075.804138,70.000000,0.000000,3920.000000,4603.077148,4143.077148,4289.230957,4007.179443,4624.102539,3932.820557,3884.102539,4346.666504,3981.538574,4428.205078,4158.461426,4116.922852,3942.051270,445.000000,4.000000,,,,0.000000,2.000000,4.000000,4.000000,4.000000,4.000000,4.000000,4.000000,4.000000,4.000000,4.000000,2.000000,4.000000,4.000000,1.000000,41.666668
1601229075.811959,71.000000,0.000000,3921.538574,4609.743652,4138.974121,4288.205078,4010.769287,4624.102539,3931.794922,3885.128174,4348.717773,3982.564209,4425.641113,4166.666504,4121.025879,3941.025635,353.000000,4.000000,,,,0.000000,2.000000,4.000000,4.000000,4.000000,4.000000,4.000000,4.000000,4.000000,4.000000,4.000000,2.000000,4.000000,4.000000,1.000000,41.666668
1601229075.819781,72.000000,0.000000,3925.641113,4614.358887,4139.487305,4287.692383,4006.666748,4624.615234,3931.794922,3884.615479,4349.230957,3986.153809,4424.615234,4165.128418,4116.922852,3939.487061,408.000000,4.000000,,,,0.000000,2.000000,4.000000,4.000000,4.000000,4.000000,4.000000,4.000000,4.000000,4.000000,4.000000,2.000000,4.000000,4.000000,1.000000,41.666668
1601229075.827602,73.000000,0.000000,3925.128174,4618.461426,4140.000000,4293.846191,3996.410156,4624.102539,3929.230713,3882.564209,4345.641113,3982.564209,4420.512695,4151.282227,4108.717773,3936.923096,408.000000,4.000000,,,,0.000000,2.000000,4.000000,4.000000,4.000000,4.000000,4.000000,4.000000,4.000000,4.000000,4.000000,2.000000,4.000000,4.000000,1.000000,41.666668
1601229075.835424,74.000000,0.000000,3917.948730,4626.153809,4132.307617,4300.512695,4000.512939,4623.589844,3921.538574,3878.461426,4339.487305,3976.410156,4411.794922,4147.692383,4104.615234,3933.333252,432.000000,4.000000,,,,0.000000,2.000000,4.000000,4.000000,4.000000,4.000000,4.000000,4.000000,4.000000,4.000000,4.000000,2.000000,4.000000,4.000000,1.000000,41.666668
1601229075.843245,75.000000,0.000000,3914.871826,4626.153809,4129.743652,4299.487305,4009.743652,4619.487305,3915.897461,3873.333252,4332.307617,3975.897461,4409.743652,4148.205078,4105.128418,3932.820557,67.000000,4.000000,,,,0.000000,2.000000,4.000000,4.000000,4.000000,4.000000,4.000000,4.000000,4.000000,4.000000,4.000000,2.000000,4.000000,4.000000,1.000000,41.666668
