title:your record name, start timestamp:1602278528.913388, stop timestamp:1602278559.177187, headset type:EPOC, headset serial:78262597, headset firmware:1e00, subject name:alzaabi.su, channels:38, sampling rate:128, samples:3871      , version:2.0
Timestamp,EEG.Counter,EEG.Interpolated,EEG.AF3,EEG.F7,EEG.F3,EEG.FC5,EEG.T7,EEG.P7,EEG.O1,EEG.O2,EEG.P8,EEG.T8,EEG.FC6,EEG.F4,EEG.F8,EEG.AF4,EEG.RawCq,EEG.Battery,MarkerIndex,MarkerType,MarkerValueInt,EEG.MarkerHardware,CQ.AF3,CQ.F7,CQ.F3,CQ.FC5,CQ.T7,CQ.P7,CQ.O1,CQ.O2,CQ.P8,CQ.T8,CQ.FC6,CQ.F4,CQ.F8,CQ.AF4,CQ.Overall
1602278528.913388,93.000000,0.000000,3887.692383,4624.102539,4158.461426,4257.436035,3988.718018,4613.846191,3974.871826,3897.948730,4330.256348,3972.307617,4217.948730,4145.128418,4089.743652,3971.281982,357.000000,4.000000,,,,0.000000,4.000000,4.000000,0.000000,4.000000,4.000000,4.000000,4.000000,4.000000,4.000000,1.000000,4.000000,4.000000,4.000000,2.000000,25.000000
1602278528.921109,94.000000,0.000000,3888.205078,4628.717773,4159.487305,4253.846191,3989.743652,4610.769043,3970.769287,3891.281982,4322.051270,3972.307617,4210.256348,4141.025879,4087.179443,3970.256348,441.000000,4.000000,,,,0.000000,4.000000,4.000000,0.000000,4.000000,4.000000,4.000000,4.000000,4.000000,4.000000,1.000000,4.000000,4.000000,4.000000,2.000000,25.000000
1602278528.929031,95.000000,0.000000,3891.281982,4626.666504,4160.512695,4249.230957,3993.333252,4614.871582,3969.743652,3897.435791,4318.461426,3971.281982,4206.153809,4143.077148,4086.153809,3974.871826,238.000000,4.000000,,,,0.000000,4.000000,4.000000,0.000000,4.000000,4.000000,4.000000,4.000000,4.000000,4.000000,1.000000,4.000000,4.000000,4.000000,2.000000,25.000000
1602278528.936853,96.000000,0.000000,3885.641113,4623.077148,4159.487305,4253.846191,3990.769287,4610.769043,3966.666748,3891.794922,4312.307617,3970.256348,4209.230957,4138.461426,4080.000000,3975.897461,423.000000,4.000000,,,,0.000000,4.000000,4.000000,0.000000,4.000000,4.000000,4.000000,4.000000,4.000000,4.000000,1.000000,4.000000,4.000000,4.000000,2.000000,25.000000
1602278528.944774,97.000000,0.000000,3881.025635,4621.538574,4155.384766,4255.897461,3992.307617,4598.974121,3958.461426,3878.974365,4308.205078,3972.307617,4204.615234,4132.820313,4078.461426,3972.307617,357.000000,4.000000,,,,0.000000,4.000000,4.000000,0.000000,4.000000,4.000000,4.000000,4.000000,4.000000,4.000000,1.000000,4.000000,4.000000,4.000000,2.000000,25.000000
1602278528.952596,98.000000,0.000000,3885.128174,4623.077148,4155.897461,4247.179688,3996.923096,4597.948730,3957.948730,3881.538574,4310.769043,3970.769287,4195.897461,4133.846191,4082.051270,3972.820557,441.000000,4.000000,,,,0.000000,4.000000,4.000000,0.000000,4.000000,4.000000,4.000000,4.000000,4.000000,4.000000,1.000000,4.000000,4.000000,4.000000,2.000000,25.000000
1602278528.960517,99.000000,0.000000,3891.794922,4631.282227,4163.077148,4254.871582,3998.461426,4614.871582,3968.205078,3890.256348,4313.333496,3968.718018,4200.000000,4135.897461,4083.589844,3977.435791,238.000000,4.000000,,,,0.000000,4.000000,4.000000,0.000000,4.000000,4.000000,4.000000,4.000000,4.000000,4.000000,1.000000,4.000000,4.000000,4.000000,2.000000,25.000000
1602278528.968339,100.000000,0.000000,3891.281982,4637.436035,4162.051270,4273.333496,3998.461426,4622.563965,3969.743652,3890.769287,4316.410156,3971.281982,4204.102539,4133.333496,4080.512939,3974.871826,423.000000,4.000000,,,,0.000000,4.000000,4.000000,0.000000,4.000000,4.000000,4.000000,4.000000,4.000000,4.000000,1.000000,4.000000,4.000000,4.000000,2.000000,25.000000
1602278528.976260,101.000000,0.000000,3886.153809,4627.179688,4158.461426,4265.128418,3998.461426,4611.282227,3961.538574,3886.153809,4316.410156,3970.769287,4199.487305,4129.230957,4076.923096,3971.794922,357.000000,4.000000,,,,0.000000,4.000000,4.000000,0.000000,4.000000,4.000000,4.000000,4.000000,4.000000,4.000000,1.000000,4.000000,4.000000,4.000000,2.000000,25.000000
1602278528.984082,102.000000,0.000000,3886.666748,4622.051270,4158.461426,4253.846191,3996.410156,4608.205078,3961.538574,3886.153809,4315.384766,3968.205078,4209.230957,4136.410156,4081.538574,3977.435791,441.000000,4.000000,,,,0.000000,4.000000,4.000000,0.000000,4.000000,4.000000,4.000000,4.000000,4.000000,4.000000,1.000000,4.000000,4.000000,4.000000,2.000000,25.000000
1602278528.992003,103.000000,0.000000,3894.871826,4638.974121,4158.461426,4267.179688,3995.897461,4616.410156,3968.718018,3892.307617,4318.461426,3971.794922,4225.128418,4149.230957,4092.307617,3985.128174,238.000000,4.000000,,,,0.000000,4.000000,4.000000,0.000000,4.000000,4.000000,4.000000,4.000000,4.000000,4.000000,1.000000,4.000000,4.000000,4.000000,2.000000,25.000000
1602278528.999824,104.000000,0.000000,3897.948730,4650.256348,4157.948730,4278.974121,4003.076904,4619.487305,3974.871826,3897.435791,4323.589844,3974.871826,4225.641113,4149.743652,4102.051270,3982.564209,423.000000,4.000000,,,,0.000000,4.000000,4.000000,0.000000,4.000000,4.000000,4.000000,4.000000,4.000000,4.000000,1.000000,4.000000,4.000000,4.000000,2.000000,25.000000
1602278529.007546,105.000000,0.000000,3891.794922,4643.589844,4162.051270,4271.794922,4011.281982,4621.025879,3976.923096,3894.871826,4325.128418,3971.794922,4221.025879,4142.563965,4103.589844,3978.974365,357.000000,4.000000,,,,0.000000,4.000000,4.000000,0.000000,4.000000,4.000000,4.000000,4.000000,4.000000,4.000000,1.000000,4.000000,4.000000,4.000000,2.000000,25.000000
1602278529.015367,106.000000,0.000000,3888.205078,4636.922852,4162.563965,4263.589844,4013.333252,4622.563965,3973.333252,3890.769287,4323.077148,3969.743652,4217.948730,4142.563965,4101.025879,3976.410156,441.000000,4.000000,,,,0.000000,4.000000,4.000000,0.000000,4.000000,4.000000,4.000000,4.000000,4.000000,4.000000,1.000000,4.000000,4.000000,4.000000,2.000000,25.000000
1602278529.023088,107.000000,0.000000,3888.205078,4634.358887,4161.538574,4263.589844,4009.743652,4618.974121,3970.769287,3893.333252,4320.512695,3971.281982,4215.897461,4145.128418,4097.948730,3976.923096,238.000000,4.000000,,,,0.000000,4.000000,4.000000,0.000000,4.000000,4.000000,4.000000,4.000000,4.000000,4.000000,1.000000,4.000000,4.000000,4.000000,2.000000,25.000000
1602278529.030910,108.000000,0.000000,3888.718018,4628.717773,4162.563965,4263.589844,4007.692383,4617.948730,3975.384521,3896.923096,4326.153809,3971.281982,4222.051270,4144.615234,4097.948730,3980.512939,423.000000,4.000000,,,,0.000000,4.000000,4.000000,0.000000,4.000000,4.000000,4.000000,4.000000,4.000000,4.000000,1.000000,4.000000,4.000000,4.000000,2.000000,25.000000
1602278529.038631,109.000000,0.000000,3889.230713,4628.205078,4160.512695,4264.615234,4003.589844,4624.102539,3975.384521,3897.948730,4329.743652,3970.769287,4226.666504,4144.102539,4096.922852,3983.076904,357.000000,4.000000,,,,0.000000,4.000000,4.000000,0.000000,4.000000,4.000000,4.000000,4.000000,4.000000,4.000000,1.000000,4.000000,4.000000,4.000000,2.000000,25.000000
1602278529.046452,110.000000,0.000000,3887.692383,4630.256348,4156.410156,4265.128418,3996.410156,4620.000000,3964.102539,3891.794922,4321.025879,3970.769287,4218.461426,4141.538574,4090.769287,3980.000000,441.000000,4.000000,,,,0.000000,4.000000,4.000000,0.000000,4.000000,4.000000,4.000000,4.000000,4.000000,4.000000,1.000000,4.000000,4.000000,4.000000,2.000000,25.000000
1602278529.054174,111.000000,0.000000,3886.666748,4628.717773,4159.487305,4264.102539,4000.512939,4613.333496,3963.076904,3885.128174,4314.358887,3970.769287,4215.384766,4139.487305,4091.281982,3976.410156,238.000000,4.000000,,,,0.000000,4.000000,4.000000,0.000000,4.000000,4.000000,4.000000,4.000000,4.000000,4.000000,1.000000,4.000000,4.000000,4.000000,2.000000,25.000000
1602278529.061995,112.000000,0.000000,3890.769287,4635.897461,4163.077148,4273.333496,4013.333252,4620.512695,3971.794922,3889.743652,4320.512695,3970.769287,4219.487305,4139.487305,4097.436035,3976.923096,423.000000,4.000000,,,,0.000000,4.000000,4.000000,0.000000,4.000000,4.000000,4.000000,4.000000,4.000000,4.000000,1.000000,4.000000,4.000000,4.000000,2.000000,25.000000
1602278529.069717,113.000000,0.000000,3893.846191,4645.128418,4162.051270,4285.128418,4012.820557,4622.051270,3971.794922,3889.743652,4318.974121,3970.769287,4216.410156,4139.487305,4095.384521,3975.897461,357.000000,4.000000,,,,0.000000,4.000000,4.000000,0.000000,4.000000,4.000000,4.000000,4.000000,4.000000,4.000000,1.000000,4.000000,4.000000,4.000000,2.000000,25.000000
1602278529.077538,114.000000,0.000000,3892.307617,4642.051270,4160.512695,4278.974121,4004.102539,4610.769043,3969.230713,3884.615479,4310.769043,3970.769287,4214.871582,4137.436035,4089.743652,3975.384521,441.000000,4.000000,,,,0.000000,4.000000,4.000000,0.000000,4.000000,4.000000,4.000000,4.000000,4.000000,4.000000,1.000000,4.000000,4.000000,4.000000,2.000000,25.000000
1602278529.085259,115.000000,0.000000,3893.333252,4642.051270,4158.974121,4270.256348,4006.153809,4614.358887,3969.743652,3888.718018,4314.871582,3970.769287,4223.077148,4138.461426,4092.820557,3977.435791,238.000000,4.000000,,,,0.000000,4.000000,4.000000,0.000000,4.000000,4.000000,4.000000,4.000000,4.000000,4.000000,1.000000,4.000000,4.000000,4.000000,2.000000,25.000000
1602278529.093080,116.000000,0.000000,3896.410156,4642.563965,4161.025879,4271.282227,4003.076904,4623.077148,3967.692383,3889.230713,4316.922852,3971.281982,4227.179688,4141.025879,4097.948730,3978.974365,423.000000,4.000000,,,,0.000000,4.000000,4.000000,0.000000,4.000000,4.000000,4.000000,4.000000,4.000000,4.000000,1.000000,4.000000,4.000000,4.000000,2.000000,25.000000
1602278529.100801,117.000000,0.000000,3896.410156,4636.922852,4161.538574,4266.666504,3996.923096,4615.384766,3967.692383,3884.102539,4309.230957,3971.281982,4225.128418,4141.538574,4093.846191,3975.897461,357.000000,4.000000,,,,0.000000,4.000000,4.000000,0.000000,4.000000,4.000000,4.000000,4.000000,4.000000,4.000000,1.000000,4.000000,4.000000,4.000000,2.000000,25.000000
1602278529.108723,118.000000,0.000000,3896.410156,4642.563965,4163.077148,4263.077148,4008.718018,4613.846191,3976.923096,3890.256348,4309.743652,3969.743652,4231.794922,4146.153809,4089.230713,3978.461426,441.000000,4.000000,,,,0.000000,4.000000,4.000000,0.000000,4.000000,4.000000,4.000000,4.000000,4.000000,4.000000,1.000000,4.000000,4.000000,4.000000,2.000000,25.000000
1602278529.116544,119.000000,0.000000,3898.461426,4650.256348,4163.077148,4269.230957,4017.948730,4626.153809,3984.102539,3899.487061,4320.000000,3972.820557,4242.563965,4151.794922,4098.974121,3984.102539,238.000000,4.000000,,,,0.000000,4.000000,4.000000,0.000000,4.000000,4.000000,4.000000,4.000000,4.000000,4.000000,1.000000,4.000000,4.000000,4.000000,2.000000,25.000000
1602278529.124466,120.000000,0.000000,3897.435791,4642.051270,4162.051270,4269.743652,4007.692383,4626.666504,3980.512939,3897.435791,4320.512695,3975.384521,4242.563965,4150.769043,4109.743652,3983.076904,423.000000,4.000000,,,,0.000000,4.000000,4.000000,0.000000,4.000000,4.000000,4.000000,4.000000,4.000000,4.000000,1.000000,4.000000,4.000000,4.000000,2.000000,25.000000
1602278529.132287,121.000000,0.000000,3892.307617,4634.358887,4158.461426,4265.128418,4005.641113,4618.974121,3974.358887,3895.384521,4310.769043,3972.820557,4238.974121,4143.589844,4100.000000,3975.384521,357.000000,4.000000,,,,0.000000,4.000000,4.000000,0.000000,4.000000,4.000000,4.000000,4.000000,4.000000,4.000000,1.000000,4.000000,4.000000,4.000000,2.000000,25.000000
1602278529.140209,122.000000,0.000000,3893.846191,4634.871582,4160.000000,4257.948730,4006.153809,4616.922852,3971.281982,3894.871826,4303.589844,3970.256348,4237.436035,4141.025879,4090.256348,3974.358887,441.000000,4.000000,,,,0.000000,4.000000,4.000000,0.000000,4.000000,4.000000,4.000000,4.000000,4.000000,4.000000,1.000000,4.000000,4.000000,4.000000,2.000000,25.000000
1602278529.148030,123.000000,0.000000,3895.384521,4629.230957,4161.538574,4252.820313,3997.948730,4616.922852,3970.256348,3890.256348,4303.077148,3972.820557,4234.358887,4142.051270,4090.769287,3975.897461,238.000000,4.000000,,,,0.000000,4.000000,4.000000,0.000000,4.000000,4.000000,4.000000,4.000000,4.000000,4.000000,1.000000,4.000000,4.000000,4.000000,2.000000,25.000000
1602278529.155952,124.000000,0.000000,3891.794922,4629.743652,4160.000000,4257.948730,4001.025635,4615.897461,3973.333252,3892.820557,4304.615234,3973.846191,4232.820313,4138.461426,4088.718018,3975.897461,423.000000,4.000000,,,,0.000000,4.000000,4.000000,0.000000,4.000000,4.000000,4.000000,4.000000,4.000000,4.000000,1.000000,4.000000,4.000000,4.000000,2.000000,25.000000
1602278529.163773,125.000000,0.000000,3889.230713,4634.871582,4158.461426,4257.948730,4009.743652,4611.794922,3972.820557,3894.358887,4305.641113,3973.333252,4232.307617,4134.358887,4087.179443,3974.358887,357.000000,4.000000,,,,0.000000,4.000000,4.000000,0.000000,4.000000,4.000000,4.000000,4.000000,4.000000,4.000000,1.000000,4.000000,4.000000,4.000000,2.000000,25.000000
1602278529.171695,126.000000,0.000000,3886.666748,4630.769043,4158.974121,4246.666504,4001.538574,4609.743652,3968.718018,3891.281982,4302.563965,3973.333252,4230.769043,4135.384766,4082.564209,3971.794922,441.000000,4.000000,,,,0.000000,4.000000,4.000000,0.000000,4.000000,4.000000,4.000000,4.000000,4.000000,4.000000,1.000000,4.000000,4.000000,4.000000,2.000000,25.000000
1602278529.179516,127.000000,0.000000,3891.281982,4629.743652,4158.461426,4252.820313,3994.871826,4615.897461,3970.256348,3892.820557,4302.051270,3973.333252,4232.820313,4140.000000,4081.538574,3974.871826,238.000000,4.000000,,,,0.000000,4.000000,4.000000,0.000000,4.000000,4.000000,4.000000,4.000000,4.000000,4.000000,1.000000,4.000000,4.000000,4.000000,2.000000,25.000000
1602278529.187237,128.000000,0.000000,3900.512939,4637.436035,4160.000000,4264.615234,4003.589844,4617.436035,3972.820557,3897.435791,4306.666504,3974.358887,4234.871582,4143.589844,4088.205078,3981.025635,423.000000,4.000000,,,,0.000000,4.000000,4.000000,0.000000,4.000000,4.000000,4.000000,4.000000,4.000000,4.000000,1.000000,4.000000,4.000000,4.000000,2.000000,25.000000
1602278529.195059,0.000000,0.000000,3903.589844,4636.922852,4161.538574,4253.333496,4006.153809,4608.205078,3965.641113,3894.871826,4307.179688,3973.333252,4226.666504,4144.102539,4087.179443,3980.512939,0.000000,4.000000,,,,0.000000,4.000000,4.000000,0.000000,4.000000,4.000000,4.000000,4.000000,4.000000,4.000000,1.000000,4.000000,4.000000,4.000000,2.000000,25.000000
1602278529.202780,1.000000,0.000000,3901.538574,4632.820313,4160.000000,4244.615234,3998.974365,4608.205078,3964.102539,3892.820557,4306.666504,3971.794922,4227.692383,4143.589844,4086.666748,3978.974365,427.000000,4.000000,,,,0.000000,4.000000,4.000000,0.000000,4.000000,4.000000,4.000000,4.000000,4.000000,4.000000,1.000000,4.000000,4.000000,4.000000,2.000000,25.000000
1602278529.210601,2.000000,0.000000,3900.512939,4633.846191,4160.000000,4251.282227,3994.358887,4616.410156,3972.820557,3896.923096,4310.769043,3973.333252,4238.974121,4145.128418,4101.538574,3981.538574,389.000000,4.000000,,,,0.000000,4.000000,4.000000,0.000000,4.000000,4.000000,4.000000,4.000000,4.000000,4.000000,1.000000,4.000000,4.000000,4.000000,2.000000,25.000000
1602278529.218323,3.000000,0.000000,3892.820557,4629.743652,4160.000000,4249.230957,3994.871826,4613.846191,3971.281982,3894.358887,4309.743652,3975.384521,4234.358887,4141.538574,4102.051270,3976.410156,446.000000,4.000000,,,,0.000000,4.000000,4.000000,0.000000,4.000000,4.000000,4.000000,4.000000,4.000000,4.000000,1.000000,4.000000,4.000000,4.000000,2.000000,25.000000
1602278529.226144,4.000000,0.000000,3889.230713,4630.256348,4158.974121,4247.179688,4006.153809,4610.769043,3964.615479,3886.153809,4301.025879,3974.358887,4225.128418,4136.922852,4086.666748,3970.769287,481.000000,4.000000,,,,0.000000,4.000000,4.000000,0.000000,4.000000,4.000000,4.000000,4.000000,4.000000,4.000000,1.000000,4.000000,4.000000,4.000000,2.000000,25.000000
1602278529.233866,5.000000,0.000000,3897.948730,4637.948730,4159.487305,4255.897461,4016.923096,4617.948730,3969.743652,3888.718018,4302.051270,3972.820557,4230.769043,4138.461426,4085.641113,3974.871826,420.000000,4.000000,,,,0.000000,4.000000,4.000000,0.000000,4.000000,4.000000,4.000000,4.000000,4.000000,4.000000,1.000000,4.000000,4.000000,4.000000,2.000000,25.000000
1602278529.241687,6.000000,0.000000,3901.025635,4635.384766,4162.051270,4258.461426,4010.769287,4616.922852,3976.410156,3891.794922,4308.205078,3971.794922,4229.230957,4137.948730,4086.666748,3977.435791,469.000000,4.000000,,,,0.000000,4.000000,4.000000,0.000000,4.000000,4.000000,4.000000,4.000000,4.000000,4.000000,1.000000,4.000000,4.000000,4.000000,2.000000,25.000000
1602278529.249408,7.000000,0.000000,3897.435791,4632.307617,4157.948730,4255.897461,3999.487061,4609.230957,3972.820557,3885.128174,4305.128418,3970.256348,4221.025879,4134.358887,4082.564209,3973.333252,393.000000,4.000000,,,,0.000000,4.000000,4.000000,0.000000,4.000000,4.000000,4.000000,4.000000,4.000000,4.000000,1.000000,4.000000,4.000000,4.000000,2.000000,25.000000
1602278529.257229,8.000000,0.000000,3898.461426,4634.358887,4158.974121,4257.436035,3995.384521,4607.692383,3962.564209,3878.461426,4298.461426,3971.794922,4226.666504,4135.897461,4085.641113,3978.461426,416.000000,4.000000,,,,0.000000,4.000000,4.000000,0.000000,4.000000,4.000000,4.000000,4.000000,4.000000,4.000000,1.000000,4.000000,4.000000,4.000000,2.000000,25.000000
1602278529.264950,9.000000,0.000000,3900.000000,4631.282227,4161.538574,4256.410156,3993.846191,4607.179688,3961.025635,3878.974365,4298.974121,3973.333252,4235.384766,4141.538574,4090.256348,3982.051270,49.000000,4.000000,,,,0.000000,4.000000,4.000000,0.000000,4.000000,4.000000,4.000000,4.000000,4.000000,4.000000,1.000000,4.000000,4.000000,4.000000,2.000000,25.000000
1602278529.272771,10.000000,0.000000,3901.538574,4632.820313,4159.487305,4261.538574,3994.358887,4605.641113,3968.205078,3882.564209,4305.641113,3973.333252,4235.384766,4145.641113,4094.358887,3980.000000,441.000000,4.000000,,,,0.000000,4.000000,4.000000,0.000000,4.000000,4.000000,4.000000,4.000000,4.000000,4.000000,1.000000,4.000000,4.000000,4.000000,2.000000,25.000000
1602278529.280493,11.000000,0.000000,3900.000000,4629.743652,4156.922852,4263.589844,3989.743652,4603.077148,3964.102539,3881.025635,4306.153809,3971.794922,4232.820313,4145.641113,4095.897461,3978.974365,238.000000,4.000000,,,,0.000000,4.000000,4.000000,0.000000,4.000000,4.000000,4.000000,4.000000,4.000000,4.000000,1.000000,4.000000,4.000000,4.000000,2.000000,25.000000
1602278529.288414,12.000000,0.000000,3893.846191,4615.897461,4158.461426,4252.820313,3981.538574,4599.487305,3952.820557,3877.435791,4300.512695,3972.307617,4234.358887,4142.051270,4091.281982,3981.025635,423.000000,4.000000,,,,0.000000,4.000000,4.000000,0.000000,4.000000,4.000000,4.000000,4.000000,4.000000,4.000000,1.000000,4.000000,4.000000,4.000000,2.000000,25.000000
1602278529.296236,13.000000,0.000000,3894.358887,4620.512695,4158.974121,4253.333496,3994.358887,4601.538574,3956.923096,3878.974365,4294.871582,3972.820557,4233.333496,4141.025879,4086.666748,3980.000000,357.000000,4.000000,,,,0.000000,4.000000,4.000000,0.000000,4.000000,4.000000,4.000000,4.000000,4.000000,4.000000,1.000000,4.000000,4.000000,4.000000,2.000000,25.000000
1602278529.304157,14.000000,0.000000,3895.384521,4633.846191,4158.974121,4266.153809,4008.205078,4605.128418,3965.128174,3880.000000,4291.794922,3971.794922,4223.077148,4140.512695,4084.615479,3978.974365,441.000000,4.000000,,,,0.000000,4.000000,4.000000,0.000000,4.000000,4.000000,4.000000,4.000000,4.000000,4.000000,1.000000,4.000000,4.000000,4.000000,2.000000,25.000000
1602278529.311979,15.000000,0.000000,3888.718018,4629.743652,4158.974121,4261.538574,3996.410156,4600.512695,3962.051270,3873.846191,4291.794922,3971.794922,4213.333496,4133.846191,4080.000000,3978.461426,238.000000,4.000000,,,,0.000000,4.000000,4.000000,0.000000,4.000000,4.000000,4.000000,4.000000,4.000000,4.000000,1.000000,4.000000,4.000000,4.000000,2.000000,25.000000
1602278529.319900,16.000000,0.000000,3890.256348,4627.692383,4159.487305,4260.000000,3990.769287,4601.025879,3961.025635,3873.846191,4296.410156,3971.281982,4222.051270,4132.820313,4082.564209,3977.948730,0.000000,4.000000,,,,0.000000,4.000000,4.000000,0.000000,4.000000,4.000000,4.000000,4.000000,4.000000,4.000000,1.000000,4.000000,4.000000,4.000000,2.000000,25.000000
1602278529.327722,17.000000,0.000000,3902.051270,4637.436035,4165.641113,4270.256348,4005.128174,4608.205078,3965.128174,3882.051270,4301.538574,3971.281982,4234.871582,4142.051270,4095.384521,3982.564209,0.000000,4.000000,,,,0.000000,4.000000,4.000000,0.000000,4.000000,4.000000,4.000000,4.000000,4.000000,4.000000,1.000000,4.000000,4.000000,4.000000,2.000000,25.000000
1602278529.335643,18.000000,0.000000,3901.538574,4633.333496,4164.615234,4266.666504,4003.589844,4607.692383,3962.051270,3878.461426,4300.000000,3972.307617,4232.820313,4144.615234,4098.461426,3982.564209,0.000000,4.000000,,,,0.000000,4.000000,4.000000,0.000000,4.000000,4.000000,4.000000,4.000000,4.000000,4.000000,1.000000,4.000000,4.000000,4.000000,2.000000,25.000000
1602278529.343465,19.000000,0.000000,3897.435791,4626.666504,4157.948730,4265.641113,3989.230713,4608.205078,3961.538574,3879.487061,4302.051270,3972.820557,4231.282227,4142.051270,4097.436035,3981.538574,0.000000,4.000000,,,,0.000000,4.000000,4.000000,0.000000,4.000000,4.000000,4.000000,4.000000,4.000000,4.000000,1.000000,4.000000,4.000000,4.000000,2.000000,25.000000
1602278529.351386,20.000000,0.000000,3901.025635,4631.794922,4154.358887,4276.922852,3994.358887,4614.871582,3972.820557,3893.333252,4314.358887,3973.333252,4239.487305,4146.153809,4102.051270,3985.128174,0.000000,4.000000,,,,0.000000,4.000000,4.000000,0.000000,4.000000,4.000000,4.000000,4.000000,4.000000,4.000000,1.000000,4.000000,4.000000,4.000000,2.000000,25.000000
1602278529.359207,21.000000,0.000000,3900.512939,4630.256348,4156.922852,4270.256348,4003.076904,4612.820313,3973.846191,3896.410156,4315.384766,3973.846191,4242.563965,4147.692383,4095.384521,3983.589844,0.000000,4.000000,,,,0.000000,4.000000,4.000000,0.000000,4.000000,4.000000,4.000000,4.000000,4.000000,4.000000,1.000000,4.000000,4.000000,4.000000,2.000000,25.000000
1602278529.367128,22.000000,0.000000,3889.230713,4616.410156,4156.922852,4255.384766,3992.820557,4603.077148,3960.000000,3881.025635,4298.461426,3972.820557,4225.641113,4135.384766,4077.948730,3971.281982,0.000000,4.000000,,,,0.000000,4.000000,4.000000,0.000000,4.000000,4.000000,4.000000,4.000000,4.000000,4.000000,1.000000,4.000000,4.000000,4.000000,2.000000,25.000000
1602278529.374950,23.000000,0.000000,3883.076904,4611.282227,4155.384766,4256.410156,3980.512939,4597.948730,3955.384521,3870.256348,4288.717773,3968.205078,4212.307617,4126.666504,4075.897461,3966.666748,0.000000,4.000000,,,,0.000000,4.000000,4.000000,0.000000,4.000000,4.000000,4.000000,4.000000,4.000000,4.000000,1.000000,4.000000,4.000000,4.000000,2.000000,25.000000
1602278529.382871,24.000000,0.000000,3881.025635,4618.461426,4155.384766,4264.615234,3990.256348,4593.846191,3956.923096,3869.743652,4292.820313,3966.666748,4219.487305,4129.230957,4084.102539,3970.256348,0.000000,4.000000,,,,0.000000,4.000000,4.000000,0.000000,4.000000,4.000000,4.000000,4.000000,4.000000,4.000000,1.000000,4.000000,4.000000,4.000000,2.000000,25.000000
1602278529.390692,25.000000,0.000000,3880.512939,4621.025879,4160.512695,4265.641113,4005.128174,4596.922852,3955.384521,3876.410156,4295.897461,3970.769287,4225.128418,4132.307617,4087.692383,3973.333252,0.000000,4.000000,,,,0.000000,4.000000,4.000000,0.000000,4.000000,4.000000,4.000000,4.000000,4.000000,4.000000,1.000000,4.000000,4.000000,4.000000,2.000000,25.000000
1602278529.398414,26.000000,0.000000,3887.692383,4624.102539,4161.025879,4265.641113,4005.641113,4611.794922,3962.051270,3885.641113,4301.025879,3972.820557,4225.128418,4134.358887,4089.230713,3976.410156,0.000000,4.000000,,,,0.000000,4.000000,4.000000,0.000000,4.000000,4.000000,4.000000,4.000000,4.000000,4.000000,1.000000,4.000000,4.000000,4.000000,2.000000,25.000000
1602278529.406235,27.000000,0.000000,3892.820557,4635.897461,4159.487305,4265.641113,3999.487061,4615.384766,3969.743652,3885.641113,4305.128418,3971.794922,4225.128418,4134.358887,4085.641113,3977.948730,0.000000,4.000000,,,,0.000000,4.000000,4.000000,0.000000,4.000000,4.000000,4.000000,4.000000,4.000000,4.000000,1.000000,4.000000,4.000000,4.000000,2.000000,25.000000
1602278529.413956,28.000000,0.000000,3891.281982,4643.077148,4158.974121,4265.128418,3999.487061,4609.743652,3966.153809,3883.076904,4306.153809,3972.307617,4224.615234,4133.846191,4081.025635,3975.897461,0.000000,4.000000,,,,0.000000,4.000000,4.000000,0.000000,4.000000,4.000000,4.000000,4.000000,4.000000,4.000000,1.000000,4.000000,4.000000,4.000000,2.000000,25.000000
1602278529.421778,29.000000,0.000000,3890.256348,4639.487305,4159.487305,4265.641113,4006.153809,4616.922852,3970.769287,3891.281982,4313.846191,3974.358887,4228.205078,4135.897461,4089.743652,3977.948730,0.000000,4.000000,,,,0.000000,4.000000,4.000000,0.000000,4.000000,4.000000,4.000000,4.000000,4.000000,4.000000,1.000000,4.000000,4.000000,4.000000,2.000000,25.000000
1602278529.429499,30.000000,0.000000,3892.820557,4635.384766,4160.512695,4266.666504,4005.641113,4623.589844,3978.974365,3896.410156,4315.897461,3973.333252,4233.333496,4135.897461,4096.922852,3978.974365,0.000000,4.000000,,,,0.000000,4.000000,4.000000,0.000000,4.000000,4.000000,4.000000,4.000000,4.000000,4.000000,1.000000,4.000000,4.000000,4.000000,2.000000,25.000000
1602278529.437320,31.000000,0.000000,3892.307617,4633.846191,4163.589844,4265.128418,4000.512939,4614.358887,3971.794922,3893.333252,4307.179688,3970.256348,4225.641113,4131.794922,4086.153809,3974.871826,0.000000,4.000000,,,,0.000000,4.000000,4.000000,0.000000,4.000000,4.000000,4.000000,4.000000,4.000000,4.000000,1.000000,4.000000,4.000000,4.000000,2.000000,25.000000
1602278529.445041,32.000000,0.000000,3891.794922,4635.384766,4161.025879,4266.666504,4003.076904,4608.717773,3968.718018,3894.358887,4305.128418,3970.769287,4221.538574,4136.410156,4082.051270,3975.897461,0.000000,4.000000,,,,0.000000,4.000000,4.000000,0.000000,4.000000,4.000000,4.000000,4.000000,4.000000,4.000000,1.000000,4.000000,4.000000,4.000000,2.000000,25.000000
1602278529.452862,33.000000,0.000000,3890.769287,4630.769043,4155.384766,4264.615234,4003.076904,4609.743652,3975.897461,3895.897461,4310.256348,3972.820557,4230.769043,4144.102539,4094.358887,3981.538574,0.000000,4.000000,,,,0.000000,4.000000,4.000000,0.000000,4.000000,4.000000,4.000000,4.000000,4.000000,4.000000,1.000000,4.000000,4.000000,4.000000,2.000000,25.000000
1602278529.460583,34.000000,0.000000,3887.692383,4619.487305,4158.974121,4254.871582,3989.743652,4609.230957,3972.820557,3895.897461,4310.769043,3971.794922,4229.230957,4143.077148,4090.769287,3983.589844,0.000000,4.000000,,,,0.000000,4.000000,4.000000,0.000000,4.000000,4.000000,4.000000,4.000000,4.000000,4.000000,1.000000,4.000000,4.000000,4.000000,2.000000,25.000000
1602278529.468505,35.000000,0.000000,3886.153809,4618.974121,4162.051270,4251.794922,3987.692383,4612.307617,3971.281982,3903.076904,4312.820313,3972.820557,4226.153809,4141.538574,4082.564209,3981.538574,0.000000,4.000000,,,,0.000000,4.000000,4.000000,0.000000,4.000000,4.000000,4.000000,4.000000,4.000000,4.000000,1.000000,4.000000,4.000000,4.000000,2.000000,25.000000
1602278529.476327,36.000000,0.000000,3886.153809,4625.641113,4158.974121,4258.461426,4002.051270,4610.769043,3976.923096,3906.153809,4316.922852,3975.897461,4232.307617,4145.641113,4095.384521,3981.538574,0.000000,4.000000,,,,0.000000,4.000000,4.000000,0.000000,4.000000,4.000000,4.000000,4.000000,4.000000,4.000000,1.000000,4.000000,4.000000,4.000000,2.000000,25.000000
1602278529.484248,37.000000,0.000000,3887.179443,4622.563965,4153.333496,4257.948730,4003.076904,4601.538574,3970.769287,3895.897461,4316.922852,3974.358887,4234.871582,4144.102539,4104.615234,3981.538574,0.000000,4.000000,,,,0.000000,4.000000,4.000000,0.000000,4.000000,4.000000,4.000000,4.000000,4.000000,4.000000,1.000000,4.000000,4.000000,4.000000,2.000000,25.000000
1602278529.492070,38.000000,0.000000,3890.769287,4616.410156,4156.922852,4250.256348,3993.846191,4603.589844,3967.179443,3891.794922,4314.358887,3972.820557,4231.282227,4138.461426,4097.436035,3980.000000,0.000000,4.000000,,,,0.000000,4.000000,4.000000,0.000000,4.000000,4.000000,4.000000,4.000000,4.000000,4.000000,1.000000,4.000000,4.000000,4.000000,2.000000,25.000000
1602278529.499991,39.000000,0.000000,3892.820557,4620.000000,4158.461426,4254.358887,3993.333252,4622.051270,3983.589844,3902.051270,4317.436035,3978.974365,4231.794922,4141.025879,4095.384521,3980.000000,0.000000,4.000000,,,,0.000000,4.000000,4.000000,0.000000,4.000000,4.000000,4.000000,4.000000,4.000000,4.000000,1.000000,4.000000,4.000000,4.000000,2.000000,25.000000
1602278529.507813,40.000000,0.000000,3889.743652,4627.692383,4155.384766,4264.102539,3997.435791,4627.692383,3995.384521,3906.153809,4321.538574,3979.487061,4227.179688,4144.102539,4095.384521,3980.512939,0.000000,4.000000,,,,0.000000,4.000000,4.000000,0.000000,4.000000,4.000000,4.000000,4.000000,4.000000,4.000000,1.000000,4.000000,4.000000,4.000000,2.000000,25.000000
1602278529.515734,41.000000,0.000000,3884.615479,4626.153809,4154.358887,4262.563965,3998.461426,4621.538574,3988.205078,3898.974365,4315.897461,3974.358887,4217.436035,4137.948730,4084.102539,3976.410156,0.000000,4.000000,,,,0.000000,4.000000,4.000000,0.000000,4.000000,4.000000,4.000000,4.000000,4.000000,4.000000,1.000000,4.000000,4.000000,4.000000,2.000000,25.000000
1602278529.523556,42.000000,0.000000,3883.589844,4619.487305,4157.436035,4258.461426,3994.871826,4614.871582,3973.846191,3891.794922,4303.589844,3972.820557,4213.846191,4131.794922,4075.897461,3973.333252,0.000000,4.000000,,,,0.000000,4.000000,4.000000,0.000000,4.000000,4.000000,4.000000,4.000000,4.000000,4.000000,1.000000,4.000000,4.000000,4.000000,2.000000,25.000000
1602278529.531477,43.000000,0.000000,3886.666748,4624.102539,4157.436035,4262.563965,3995.384521,4604.615234,3963.589844,3887.179443,4298.461426,3972.307617,4212.307617,4130.769043,4074.871826,3974.358887,0.000000,4.000000,,,,0.000000,4.000000,4.000000,0.000000,4.000000,4.000000,4.000000,4.000000,4.000000,4.000000,1.000000,4.000000,4.000000,4.000000,2.000000,25.000000
1602278529.539298,44.000000,0.000000,3891.281982,4637.436035,4158.461426,4266.153809,4002.564209,4604.102539,3968.205078,3886.666748,4300.512695,3970.769287,4212.820313,4135.384766,4077.435791,3976.923096,0.000000,4.000000,,,,0.000000,4.000000,4.000000,0.000000,4.000000,4.000000,4.000000,4.000000,4.000000,4.000000,1.000000,4.000000,4.000000,4.000000,2.000000,25.000000
1602278529.547219,45.000000,0.000000,3893.846191,4640.000000,4160.512695,4268.205078,4005.128174,4612.820313,3975.384521,3892.307617,4305.641113,3974.358887,4220.512695,4142.051270,4085.641113,3982.051270,0.000000,4.000000,,,,0.000000,4.000000,4.000000,0.000000,4.000000,4.000000,4.000000,4.000000,4.000000,4.000000,1.000000,4.000000,4.000000,4.000000,2.000000,25.000000
1602278529.555041,46.000000,0.000000,3893.846191,4636.922852,4158.974121,4275.384766,4002.051270,4613.846191,3969.230713,3894.871826,4306.666504,3976.410156,4228.205078,4143.589844,4090.256348,3985.128174,0.000000,4.000000,,,,0.000000,4.000000,4.000000,0.000000,4.000000,4.000000,4.000000,4.000000,4.000000,4.000000,1.000000,4.000000,4.000000,4.000000,2.000000,25.000000
1602278529.562762,47.000000,0.000000,3894.871826,4637.436035,4158.461426,4274.358887,4003.076904,4612.307617,3969.743652,3890.769287,4304.102539,3972.820557,4224.615234,4138.974121,4088.718018,3984.615479,0.000000,4.000000,,,,0.000000,4.000000,4.000000,0.000000,4.000000,4.000000,4.000000,4.000000,4.000000,4.000000,1.000000,4.000000,4.000000,4.000000,2.000000,25.000000
1602278529.570583,48.000000,0.000000,3894.358887,4634.358887,4160.512695,4262.563965,4001.538574,4618.461426,3981.025635,3892.820557,4303.589844,3972.307617,4213.333496,4133.333496,4084.102539,3981.025635,0.000000,4.000000,,,,0.000000,4.000000,4.000000,0.000000,4.000000,4.000000,4.000000,4.000000,4.000000,4.000000,1.000000,4.000000,4.000000,4.000000,2.000000,25.000000
1602278529.578305,49.000000,0.000000,3889.230713,4622.563965,4158.461426,4257.948730,3993.846191,4618.461426,3982.051270,3893.846191,4306.153809,3973.333252,4209.230957,4129.743652,4072.307617,3977.435791,0.000000,4.000000,,,,0.000000,4.000000,4.000000,0.000000,4.000000,4.000000,4.000000,4.000000,4.000000,4.000000,1.000000,4.000000,4.000000,4.000000,2.000000,25.000000
1602278529.586126,50.000000,0.000000,3884.615479,4613.333496,4156.922852,4255.384766,3989.743652,4612.820313,3979.487061,3893.846191,4307.692383,3972.820557,4210.769043,4128.205078,4065.641113,3971.281982,0.000000,4.000000,,,,0.000000,4.000000,4.000000,0.000000,4.000000,4.000000,4.000000,4.000000,4.000000,4.000000,1.000000,4.000000,4.000000,4.000000,2.000000,25.000000
1602278529.593848,51.000000,0.000000,3888.205078,4610.769043,4158.974121,4250.256348,3986.666748,4613.333496,3980.512939,3896.410156,4313.846191,3971.794922,4211.282227,4130.256348,4073.846191,3971.794922,0.000000,4.000000,,,,0.000000,4.000000,4.000000,0.000000,4.000000,4.000000,4.000000,4.000000,4.000000,4.000000,1.000000,4.000000,4.000000,4.000000,2.000000,25.000000
1602278529.601669,52.000000,0.000000,3891.281982,4614.358887,4157.948730,4257.436035,3986.153809,4613.333496,3976.923096,3897.948730,4319.487305,3974.871826,4212.820313,4135.384766,4082.564209,3978.461426,0.000000,4.000000,,,,0.000000,4.000000,4.000000,0.000000,4.000000,4.000000,4.000000,4.000000,4.000000,4.000000,1.000000,4.000000,4.000000,4.000000,2.000000,25.000000
1602278529.609390,53.000000,0.000000,3886.666748,4617.436035,4157.436035,4264.615234,3988.718018,4612.820313,3974.358887,3894.358887,4312.820313,3975.897461,4217.948730,4138.974121,4076.923096,3978.461426,0.000000,4.000000,,,,0.000000,4.000000,4.000000,0.000000,4.000000,4.000000,4.000000,4.000000,4.000000,4.000000,1.000000,4.000000,4.000000,4.000000,2.000000,25.000000
1602278529.617212,54.000000,0.000000,3885.641113,4617.436035,4158.461426,4263.589844,3990.769287,4616.922852,3979.487061,3892.307617,4309.230957,3973.333252,4218.461426,4140.000000,4070.769287,3973.333252,0.000000,4.000000,,,,0.000000,4.000000,4.000000,0.000000,4.000000,4.000000,4.000000,4.000000,4.000000,4.000000,1.000000,4.000000,4.000000,4.000000,2.000000,25.000000
1602278529.624933,55.000000,0.000000,3893.846191,4623.077148,4160.000000,4272.820313,3998.461426,4622.051270,3981.538574,3896.923096,4314.358887,3977.435791,4220.512695,4145.128418,4078.461426,3977.948730,0.000000,4.000000,,,,0.000000,4.000000,4.000000,0.000000,4.000000,4.000000,4.000000,4.000000,4.000000,4.000000,1.000000,4.000000,4.000000,4.000000,2.000000,25.000000
1602278529.632754,56.000000,0.000000,3895.384521,4631.282227,4157.436035,4282.051270,4005.641113,4627.179688,3979.487061,3897.948730,4315.384766,3984.102539,4227.179688,4147.692383,4089.743652,3983.076904,0.000000,4.000000,,,,0.000000,4.000000,4.000000,0.000000,4.000000,4.000000,4.000000,4.000000,4.000000,4.000000,1.000000,4.000000,4.000000,4.000000,2.000000,25.000000
1602278529.640475,57.000000,0.000000,3889.230713,4627.692383,4159.487305,4273.333496,3997.948730,4630.769043,3977.435791,3894.358887,4311.794922,3980.000000,4226.666504,4141.538574,4092.307617,3982.051270,0.000000,4.000000,,,,0.000000,4.000000,4.000000,0.000000,4.000000,4.000000,4.000000,4.000000,4.000000,4.000000,1.000000,4.000000,4.000000,4.000000,2.000000,25.000000
1602278529.648397,58.000000,0.000000,3890.769287,4622.563965,4158.974121,4269.743652,3990.256348,4631.282227,3974.358887,3894.871826,4317.436035,3977.435791,4223.589844,4140.000000,4091.281982,3977.435791,0.000000,4.000000,,,,0.000000,4.000000,4.000000,0.000000,4.000000,4.000000,4.000000,4.000000,4.000000,4.000000,1.000000,4.000000,4.000000,4.000000,2.000000,25.000000
1602278529.656218,59.000000,0.000000,3896.410156,4630.769043,4154.358887,4285.641113,4000.000000,4627.179688,3972.307617,3895.384521,4322.051270,3980.000000,4225.128418,4143.589844,4092.307617,3981.025635,0.000000,4.000000,,,,0.000000,4.000000,4.000000,0.000000,4.000000,4.000000,4.000000,4.000000,4.000000,4.000000,1.000000,4.000000,4.000000,4.000000,2.000000,25.000000
1602278529.664140,60.000000,0.000000,3899.487061,4637.948730,4156.410156,4296.410156,4006.153809,4622.051270,3973.333252,3890.256348,4312.820313,3978.974365,4223.077148,4144.102539,4086.666748,3986.666748,0.000000,4.000000,,,,0.000000,4.000000,4.000000,0.000000,4.000000,4.000000,4.000000,4.000000,4.000000,4.000000,1.000000,4.000000,4.000000,4.000000,2.000000,25.000000
1602278529.671961,61.000000,0.000000,3902.051270,4632.307617,4160.000000,4291.282227,3998.974365,4622.051270,3977.435791,3883.589844,4308.205078,3976.923096,4216.410156,4144.102539,4076.923096,3986.153809,0.000000,4.000000,,,,0.000000,4.000000,4.000000,0.000000,4.000000,4.000000,4.000000,4.000000,4.000000,4.000000,1.000000,4.000000,4.000000,4.000000,2.000000,25.000000
1602278529.679883,62.000000,0.000000,3898.461426,4624.102539,4157.436035,4283.589844,3996.923096,4619.487305,3974.871826,3883.589844,4309.743652,3977.948730,4213.333496,4142.563965,4075.897461,3983.076904,0.000000,4.000000,,,,0.000000,4.000000,4.000000,0.000000,4.000000,4.000000,4.000000,4.000000,4.000000,4.000000,1.000000,4.000000,4.000000,4.000000,2.000000,25.000000
1602278529.687704,63.000000,0.000000,3891.281982,4620.000000,4157.948730,4286.666504,3999.487061,4610.256348,3970.769287,3882.051270,4307.692383,3974.871826,4215.384766,4138.461426,4077.435791,3982.051270,0.000000,4.000000,,,,0.000000,4.000000,4.000000,0.000000,4.000000,4.000000,4.000000,4.000000,4.000000,4.000000,1.000000,4.000000,4.000000,4.000000,2.000000,25.000000
1602278529.695626,64.000000,0.000000,3896.923096,4629.230957,4162.051270,4301.538574,4000.512939,4613.333496,3972.820557,3886.666748,4310.256348,3975.384521,4220.000000,4143.589844,4078.974365,3986.153809,0.000000,4.000000,,,,0.000000,4.000000,4.000000,0.000000,4.000000,4.000000,4.000000,4.000000,4.000000,4.000000,1.000000,4.000000,4.000000,4.000000,2.000000,25.000000
1602278529.703447,65.000000,0.000000,3903.589844,4640.000000,4158.974121,4310.256348,3999.487061,4624.615234,3974.358887,3893.846191,4321.025879,3979.487061,4224.615234,4151.282227,4086.153809,3987.179443,427.000000,4.000000,,,,0.000000,4.000000,4.000000,0.000000,4.000000,4.000000,4.000000,4.000000,4.000000,4.000000,1.000000,4.000000,4.000000,4.000000,2.000000,25.000000
1602278529.711369,66.000000,0.000000,3896.923096,4627.692383,4157.436035,4306.666504,3993.846191,4620.512695,3969.230713,3892.307617,4321.025879,3976.923096,4220.512695,4145.641113,4088.205078,3982.051270,389.000000,4.000000,,,,0.000000,4.000000,4.000000,0.000000,4.000000,4.000000,4.000000,4.000000,4.000000,4.000000,1.000000,4.000000,4.000000,4.000000,2.000000,25.000000
1602278529.719190,67.000000,0.000000,3896.923096,4617.948730,4160.000000,4305.641113,3989.230713,4614.871582,3969.230713,3886.666748,4309.743652,3974.871826,4212.820313,4139.487305,4078.974365,3975.897461,446.000000,4.000000,,,,0.000000,4.000000,4.000000,0.000000,4.000000,4.000000,4.000000,4.000000,4.000000,4.000000,1.000000,4.000000,4.000000,4.000000,2.000000,25.000000
1602278529.727111,68.000000,0.000000,3905.641113,4624.615234,4160.512695,4311.282227,3997.948730,4618.974121,3974.871826,3886.666748,4308.205078,3976.923096,4215.897461,4138.974121,4074.871826,3976.410156,481.000000,4.000000,,,,0.000000,4.000000,4.000000,0.000000,4.000000,4.000000,4.000000,4.000000,4.000000,4.000000,1.000000,4.000000,4.000000,4.000000,2.000000,25.000000
1602278529.734933,69.000000,0.000000,3898.974365,4620.512695,4158.461426,4310.769043,4004.102539,4619.487305,3976.923096,3889.743652,4312.307617,3973.846191,4215.897461,4137.948730,4079.487061,3978.974365,420.000000,4.000000,,,,0.000000,4.000000,4.000000,0.000000,4.000000,4.000000,4.000000,4.000000,4.000000,4.000000,1.000000,4.000000,4.000000,4.000000,2.000000,25.000000
1602278529.742654,70.000000,0.000000,3891.281982,4611.794922,4161.025879,4305.128418,3996.923096,4618.461426,3975.897461,3889.743652,4312.307617,3974.871826,4208.717773,4141.538574,4076.410156,3981.025635,469.000000,4.000000,,,,0.000000,4.000000,4.000000,0.000000,4.000000,4.000000,4.000000,4.000000,4.000000,4.000000,1.000000,4.000000,4.000000,4.000000,2.000000,25.000000
1602278529.750475,71.000000,0.000000,3896.410156,4620.000000,4160.000000,4306.153809,3994.358887,4618.974121,3972.820557,3886.153809,4310.256348,3980.000000,4213.846191,4145.128418,4071.281982,3980.512939,393.000000,4.000000,,,,0.000000,4.000000,4.000000,0.000000,4.000000,4.000000,4.000000,4.000000,4.000000,4.000000,1.000000,4.000000,4.000000,4.000000,2.000000,25.000000
1602278529.758197,72.000000,0.000000,3902.564209,4628.205078,4160.000000,4309.743652,4004.615479,4615.384766,3970.256348,3882.564209,4311.282227,3979.487061,4225.128418,4143.077148,4078.461426,3980.512939,416.000000,4.000000,,,,0.000000,4.000000,4.000000,0.000000,4.000000,4.000000,4.000000,4.000000,4.000000,4.000000,1.000000,4.000000,4.000000,4.000000,2.000000,25.000000
1602278529.766018,73.000000,0.000000,3906.153809,4629.743652,4160.000000,4315.384766,4008.205078,4619.487305,3975.384521,3887.692383,4316.410156,3973.846191,4226.153809,4145.128418,4088.205078,3984.615479,49.000000,4.000000,,,,0.000000,4.000000,4.000000,0.000000,4.000000,4.000000,4.000000,4.000000,4.000000,4.000000,1.000000,4.000000,4.000000,4.000000,2.000000,25.000000
1602278529.773740,74.000000,0.000000,3902.564209,4635.897461,4162.051270,4310.769043,3998.974365,4625.128418,3980.512939,3895.897461,4314.871582,3974.358887,4224.615234,4148.205078,4086.153809,3986.153809,441.000000,4.000000,,,,0.000000,4.000000,4.000000,0.000000,4.000000,4.000000,4.000000,4.000000,4.000000,4.000000,1.000000,4.000000,4.000000,4.000000,2.000000,25.000000
1602278529.781561,75.000000,0.000000,3891.281982,4629.743652,4156.922852,4287.179688,3992.820557,4616.922852,3973.333252,3891.281982,4305.641113,3977.435791,4224.102539,4138.461426,4082.564209,3975.384521,240.000000,4.000000,,,,0.000000,4.000000,4.000000,0.000000,4.000000,4.000000,4.000000,4.000000,4.000000,4.000000,1.000000,4.000000,4.000000,4.000000,2.000000,25.000000
1602278529.789282,76.000000,0.000000,3886.153809,4618.974121,4153.846191,4275.897461,3993.333252,4611.282227,3968.205078,3882.564209,4300.512695,3977.948730,4218.461426,4129.743652,4083.076904,3971.794922,423.000000,4.000000,,,,0.000000,4.000000,4.000000,0.000000,4.000000,4.000000,4.000000,4.000000,4.000000,4.000000,1.000000,4.000000,4.000000,4.000000,2.000000,25.000000
1602278529.797104,77.000000,0.000000,3888.718018,4627.179688,4159.487305,4292.307617,3998.461426,4621.538574,3974.871826,3884.615479,4305.641113,3976.923096,4220.000000,4133.333496,4080.512939,3978.461426,357.000000,4.000000,,,,0.000000,4.000000,4.000000,0.000000,4.000000,4.000000,4.000000,4.000000,4.000000,4.000000,1.000000,4.000000,4.000000,4.000000,2.000000,25.000000
1602278529.804825,78.000000,0.000000,3890.769287,4643.077148,4163.077148,4297.436035,4005.641113,4619.487305,3973.333252,3883.076904,4306.666504,3975.897461,4222.051270,4138.461426,4076.923096,3980.512939,441.000000,4.000000,,,,0.000000,4.000000,4.000000,0.000000,4.000000,4.000000,4.000000,4.000000,4.000000,4.000000,1.000000,4.000000,4.000000,4.000000,2.000000,25.000000
1602278529.812646,79.000000,0.000000,3894.358887,4641.538574,4156.922852,4283.077148,4007.179443,4606.666504,3961.538574,3872.307617,4298.974121,3976.923096,4217.436035,4137.436035,4077.435791,3974.871826,240.000000,4.000000,,,,0.000000,4.000000,4.000000,0.000000,4.000000,4.000000,4.000000,4.000000,4.000000,4.000000,1.000000,4.000000,4.000000,4.000000,2.000000,25.000000
1602278529.820367,80.000000,0.000000,3898.974365,4629.743652,4157.948730,4277.948730,4001.025635,4604.615234,3959.487061,3870.769287,4293.846191,3977.948730,4218.461426,4136.410156,4077.948730,3974.871826,423.000000,4.000000,,,,0.000000,4.000000,4.000000,0.000000,4.000000,4.000000,4.000000,4.000000,4.000000,4.000000,1.000000,4.000000,4.000000,4.000000,2.000000,25.000000
1602278529.828188,81.000000,0.000000,3898.974365,4633.333496,4165.128418,4282.051270,4000.512939,4610.256348,3967.179443,3879.487061,4297.948730,3974.871826,4222.563965,4140.000000,4073.846191,3979.487061,357.000000,4.000000,,,,0.000000,4.000000,4.000000,0.000000,4.000000,4.000000,4.000000,4.000000,4.000000,4.000000,1.000000,4.000000,4.000000,4.000000,2.000000,25.000000
1602278529.835909,82.000000,0.000000,3895.384521,4640.000000,4161.025879,4282.051270,4007.179443,4613.333496,3970.256348,3889.230713,4307.692383,3978.461426,4228.717773,4141.538574,4074.871826,3978.461426,441.000000,4.000000,,,,0.000000,4.000000,4.000000,0.000000,4.000000,4.000000,4.000000,4.000000,4.000000,4.000000,1.000000,4.000000,4.000000,4.000000,2.000000,25.000000
1602278529.843831,83.000000,0.000000,3887.692383,4637.948730,4155.897461,4272.820313,4006.666748,4621.025879,3974.358887,3895.897461,4314.358887,3986.153809,4232.820313,4139.487305,4082.051270,3976.923096,240.000000,4.000000,,,,0.000000,4.000000,4.000000,0.000000,4.000000,4.000000,4.000000,4.000000,4.000000,4.000000,1.000000,4.000000,4.000000,4.000000,2.000000,25.000000
1602278529.851652,84.000000,0.000000,3884.102539,4628.205078,4158.461426,4263.077148,3999.487061,4628.717773,3983.076904,3897.435791,4315.897461,3985.641113,4232.307617,4139.487305,4085.128174,3976.410156,423.000000,4.000000,,,,0.000000,4.000000,4.000000,0.000000,4.000000,4.000000,4.000000,4.000000,4.000000,4.000000,1.000000,4.000000,4.000000,4.000000,2.000000,25.000000
1602278529.859574,85.000000,0.000000,3891.794922,4619.487305,4161.538574,4262.563965,3997.435791,4624.615234,3985.641113,3894.358887,4310.256348,3982.051270,4230.256348,4143.589844,4084.102539,3978.461426,357.000000,4.000000,,,,0.000000,4.000000,4.000000,0.000000,4.000000,4.000000,4.000000,4.000000,4.000000,4.000000,1.000000,4.000000,4.000000,4.000000,2.000000,25.000000
1602278529.867395,86.000000,0.000000,3897.948730,4621.538574,4160.512695,4264.102539,4001.538574,4622.563965,3988.205078,3898.461426,4306.666504,3985.128174,4234.358887,4145.641113,4085.641113,3978.461426,441.000000,4.000000,,,,0.000000,4.000000,4.000000,0.000000,4.000000,4.000000,4.000000,4.000000,4.000000,4.000000,1.000000,4.000000,4.000000,4.000000,2.000000,25.000000
1602278529.875317,87.000000,0.000000,3895.897461,4625.641113,4160.000000,4263.589844,4000.000000,4624.102539,3993.333252,3902.564209,4310.256348,3986.666748,4234.871582,4146.153809,4080.000000,3977.435791,240.000000,4.000000,,,,0.000000,4.000000,4.000000,0.000000,4.000000,4.000000,4.000000,4.000000,4.000000,4.000000,1.000000,4.000000,4.000000,4.000000,2.000000,25.000000
1602278529.883138,88.000000,0.000000,3892.820557,4623.589844,4157.436035,4263.589844,3995.897461,4615.384766,3986.153809,3894.871826,4308.205078,3982.051270,4223.589844,4144.615234,4071.281982,3973.846191,423.000000,4.000000,,,,0.000000,4.000000,4.000000,0.000000,4.000000,4.000000,4.000000,4.000000,4.000000,4.000000,1.000000,4.000000,4.000000,4.000000,2.000000,25.000000
1602278529.891060,89.000000,0.000000,3894.871826,4624.102539,4158.461426,4264.102539,3998.974365,4608.717773,3973.846191,3890.256348,4301.538574,3980.512939,4220.000000,4144.615234,4072.820557,3973.846191,357.000000,4.000000,,,,0.000000,4.000000,4.000000,0.000000,4.000000,4.000000,4.000000,4.000000,4.000000,4.000000,1.000000,4.000000,4.000000,4.000000,2.000000,25.000000
1602278529.898881,90.000000,0.000000,3901.025635,4635.384766,4158.974121,4269.230957,4005.128174,4618.461426,3973.333252,3893.846191,4304.615234,3981.538574,4229.230957,4146.666504,4080.512939,3977.435791,441.000000,4.000000,,,,0.000000,4.000000,4.000000,0.000000,4.000000,4.000000,4.000000,4.000000,4.000000,4.000000,1.000000,4.000000,4.000000,4.000000,2.000000,25.000000
1602278529.906802,91.000000,0.000000,3902.564209,4640.512695,4158.974121,4279.487305,4005.641113,4622.051270,3975.897461,3894.358887,4308.717773,3983.589844,4233.846191,4148.717773,4083.589844,3980.000000,240.000000,4.000000,,,,0.000000,4.000000,4.000000,0.000000,4.000000,4.000000,4.000000,4.000000,4.000000,4.000000,1.000000,4.000000,4.000000,4.000000,2.000000,25.000000
1602278529.914624,92.000000,0.000000,3894.871826,4636.410156,4156.922852,4276.922852,4009.230713,4611.794922,3973.333252,3889.743652,4305.641113,3983.076904,4229.743652,4146.153809,4081.025635,3977.948730,423.000000,4.000000,,,,0.000000,4.000000,4.000000,0.000000,4.000000,4.000000,4.000000,4.000000,4.000000,4.000000,1.000000,4.000000,4.000000,4.000000,2.000000,25.000000
1602278529.922345,93.000000,0.000000,3887.179443,4629.230957,4157.948730,4268.205078,4009.230713,4606.666504,3968.205078,3887.179443,4303.589844,3981.025635,4224.102539,4140.000000,4073.846191,3973.846191,357.000000,4.000000,,,,0.000000,4.000000,4.000000,0.000000,4.000000,4.000000,4.000000,4.000000,4.000000,4.000000,1.000000,4.000000,4.000000,4.000000,2.000000,25.000000
1602278529.930166,94.000000,0.000000,3889.230713,4626.153809,4160.512695,4269.230957,3999.487061,4611.282227,3962.564209,3882.564209,4301.025879,3984.102539,4224.615234,4140.512695,4072.820557,3972.820557,441.000000,4.000000,,,,0.000000,4.000000,4.000000,0.000000,4.000000,4.000000,4.000000,4.000000,4.000000,4.000000,1.000000,4.000000,4.000000,4.000000,2.000000,25.000000
1602278529.937888,95.000000,0.000000,3890.256348,4628.205078,4163.077148,4269.230957,3995.384521,4610.256348,3961.025635,3876.410156,4294.871582,3984.615479,4227.692383,4146.666504,4074.358887,3975.384521,240.000000,4.000000,,,,0.000000,4.000000,4.000000,0.000000,4.000000,4.000000,4.000000,4.000000,4.000000,4.000000,1.000000,4.000000,4.000000,4.000000,2.000000,25.000000
1602278529.945709,96.000000,0.000000,3889.743652,4624.102539,4163.077148,4264.102539,3995.384521,4607.179688,3968.205078,3876.923096,4292.820313,3981.538574,4224.615234,4145.128418,4073.333252,3975.384521,423.000000,4.000000,,,,0.000000,4.000000,4.000000,0.000000,4.000000,4.000000,4.000000,4.000000,4.000000,4.000000,1.000000,4.000000,4.000000,4.000000,2.000000,25.000000
1602278529.953430,97.000000,0.000000,3889.230713,4618.974121,4157.436035,4262.051270,3990.256348,4609.743652,3970.769287,3879.487061,4296.410156,3979.487061,4214.871582,4138.461426,4074.358887,3972.820557,357.000000,4.000000,,,,0.000000,4.000000,4.000000,0.000000,4.000000,4.000000,4.000000,4.000000,4.000000,4.000000,1.000000,4.000000,4.000000,4.000000,2.000000,25.000000
1602278529.961252,98.000000,0.000000,3891.281982,4625.641113,4156.922852,4266.666504,3988.205078,4608.717773,3965.641113,3879.487061,4298.461426,3977.948730,4212.307617,4140.000000,4075.897461,3975.897461,441.000000,4.000000,,,,0.000000,4.000000,4.000000,0.000000,4.000000,4.000000,4.000000,4.000000,4.000000,4.000000,1.000000,4.000000,4.000000,4.000000,2.000000,25.000000
1602278529.968973,99.000000,0.000000,3897.948730,4631.282227,4160.512695,4270.256348,3989.230713,4605.128418,3962.051270,3874.871826,4299.487305,3977.948730,4221.025879,4145.128418,4079.487061,3977.948730,240.000000,4.000000,,,,0.000000,4.000000,4.000000,0.000000,4.000000,4.000000,4.000000,4.000000,4.000000,4.000000,1.000000,4.000000,4.000000,4.000000,2.000000,25.000000
1602278529.976795,100.000000,0.000000,3902.564209,4623.589844,4161.538574,4271.282227,3994.358887,4606.666504,3966.666748,3877.948730,4304.615234,3985.128174,4230.256348,4146.666504,4082.051270,3977.948730,423.000000,4.000000,,,,0.000000,4.000000,4.000000,0.000000,4.000000,4.000000,4.000000,4.000000,4.000000,4.000000,1.000000,4.000000,4.000000,4.000000,2.000000,25.000000
1602278529.984516,101.000000,0.000000,3899.487061,4618.974121,4160.000000,4272.307617,4005.128174,4606.153809,3971.281982,3886.153809,4306.666504,3990.769287,4228.205078,4145.641113,4078.974365,3978.461426,357.000000,4.000000,,,,0.000000,4.000000,4.000000,0.000000,4.000000,4.000000,4.000000,4.000000,4.000000,4.000000,1.000000,4.000000,4.000000,4.000000,2.000000,25.000000
1602278529.992337,102.000000,0.000000,3899.487061,4621.538574,4162.563965,4268.205078,4001.025635,4600.000000,3966.153809,3886.153809,4301.538574,3984.615479,4217.948730,4146.666504,4072.820557,3982.051270,441.000000,4.000000,,,,0.000000,4.000000,4.000000,0.000000,4.000000,4.000000,4.000000,4.000000,4.000000,4.000000,1.000000,4.000000,4.000000,4.000000,2.000000,25.000000
1602278530.000058,103.000000,0.000000,3902.051270,4616.922852,4161.025879,4270.769043,3981.538574,4608.205078,3964.615479,3884.615479,4306.153809,3980.512939,4218.461426,4146.666504,4071.794922,3980.000000,240.000000,4.000000,,,,0.000000,4.000000,4.000000,0.000000,4.000000,4.000000,4.000000,4.000000,4.000000,4.000000,1.000000,4.000000,4.000000,4.000000,2.000000,25.000000
1602278530.007879,104.000000,0.000000,3896.410156,4614.358887,4157.436035,4282.563965,3975.384521,4619.487305,3974.358887,3890.769287,4312.820313,3987.692383,4227.179688,4144.102539,4077.435791,3975.384521,423.000000,4.000000,,,,0.000000,4.000000,4.000000,0.000000,4.000000,4.000000,4.000000,4.000000,4.000000,4.000000,1.000000,4.000000,4.000000,4.000000,2.000000,25.000000
1602278530.015600,105.000000,0.000000,3887.179443,4617.948730,4155.384766,4277.436035,3982.564209,4605.641113,3973.846191,3886.153809,4301.025879,3992.307617,4217.436035,4140.000000,4078.974365,3972.820557,357.000000,4.000000,,,,0.000000,4.000000,4.000000,0.000000,4.000000,4.000000,4.000000,4.000000,4.000000,4.000000,1.000000,4.000000,4.000000,4.000000,2.000000,25.000000
1602278530.023522,106.000000,0.000000,3884.102539,4620.000000,4158.461426,4261.538574,3988.205078,4595.384766,3962.051270,3868.718018,4289.743652,3982.051270,4198.461426,4132.307617,4064.615479,3973.333252,441.000000,4.000000,,,,0.000000,4.000000,4.000000,0.000000,4.000000,4.000000,4.000000,4.000000,4.000000,4.000000,1.000000,4.000000,4.000000,4.000000,2.000000,25.000000
1602278530.031343,107.000000,0.000000,3885.641113,4622.563965,4160.000000,4266.666504,3988.205078,4603.589844,3961.538574,3867.692383,4296.922852,3971.281982,4202.051270,4127.692383,4052.820557,3973.333252,240.000000,4.000000,,,,0.000000,4.000000,4.000000,0.000000,4.000000,4.000000,4.000000,4.000000,4.000000,4.000000,1.000000,4.000000,4.000000,4.000000,2.000000,25.000000
1602278530.039265,108.000000,0.000000,3891.281982,4624.102539,4158.461426,4272.820313,3984.615479,4607.692383,3969.230713,3877.435791,4299.487305,3977.948730,4215.897461,4128.717773,4056.923096,3972.307617,423.000000,4.000000,,,,0.000000,4.000000,4.000000,0.000000,4.000000,4.000000,4.000000,4.000000,4.000000,4.000000,1.000000,4.000000,4.000000,4.000000,2.000000,25.000000
1602278530.047086,109.000000,0.000000,3896.410156,4625.641113,4155.384766,4267.692383,3989.230713,4604.615234,3968.718018,3883.589844,4295.897461,3985.128174,4214.871582,4133.846191,4064.102539,3973.846191,357.000000,4.000000,,,,0.000000,4.000000,4.000000,0.000000,4.000000,4.000000,4.000000,4.000000,4.000000,4.000000,1.000000,4.000000,4.000000,4.000000,2.000000,25.000000
1602278530.055008,110.000000,0.000000,3898.461426,4630.256348,4159.487305,4276.922852,3997.435791,4610.256348,3969.230713,3888.205078,4306.153809,3983.589844,4215.384766,4143.077148,4071.794922,3982.051270,441.000000,4.000000,,,,0.000000,4.000000,4.000000,0.000000,4.000000,4.000000,4.000000,4.000000,4.000000,4.000000,1.000000,4.000000,4.000000,4.000000,2.000000,25.000000
1602278530.062829,111.000000,0.000000,3895.384521,4633.333496,4163.589844,4280.512695,3994.871826,4613.333496,3973.333252,3889.743652,4314.871582,3984.102539,4221.538574,4147.692383,4079.487061,3986.153809,240.000000,4.000000,,,,0.000000,4.000000,4.000000,0.000000,4.000000,4.000000,4.000000,4.000000,4.000000,4.000000,1.000000,4.000000,4.000000,4.000000,2.000000,25.000000
1602278530.070751,112.000000,0.000000,3892.307617,4631.794922,4159.487305,4264.102539,3993.333252,4610.769043,3974.871826,3893.333252,4312.307617,3986.666748,4216.922852,4142.563965,4078.974365,3977.948730,423.000000,4.000000,,,,0.000000,4.000000,4.000000,0.000000,4.000000,4.000000,4.000000,4.000000,4.000000,4.000000,1.000000,4.000000,4.000000,4.000000,2.000000,25.000000
1602278530.078572,113.000000,0.000000,3890.769287,4627.179688,4158.461426,4262.051270,3998.461426,4615.897461,3976.410156,3896.410156,4313.333496,3986.666748,4214.871582,4141.538574,4078.461426,3976.923096,357.000000,4.000000,,,,0.000000,4.000000,4.000000,0.000000,4.000000,4.000000,4.000000,4.000000,4.000000,4.000000,1.000000,4.000000,4.000000,4.000000,2.000000,25.000000
1602278530.086493,114.000000,0.000000,3888.205078,4621.025879,4160.000000,4270.769043,3997.948730,4615.897461,3978.974365,3896.923096,4318.974121,3987.692383,4223.589844,4145.128418,4080.000000,3981.025635,441.000000,4.000000,,,,0.000000,4.000000,4.000000,0.000000,4.000000,4.000000,4.000000,4.000000,4.000000,4.000000,1.000000,4.000000,4.000000,4.000000,2.000000,25.000000
1602278530.094314,115.000000,0.000000,3890.769287,4622.051270,4160.000000,4270.769043,3994.358887,4613.846191,3976.410156,3894.871826,4320.000000,3989.230713,4224.615234,4144.615234,4078.461426,3979.487061,240.000000,4.000000,,,,0.000000,4.000000,4.000000,0.000000,4.000000,4.000000,4.000000,4.000000,4.000000,4.000000,1.000000,4.000000,4.000000,4.000000,2.000000,25.000000
1602278530.102236,116.000000,0.000000,3898.974365,4629.743652,4157.948730,4274.871582,3996.410156,4614.871582,3973.846191,3895.384521,4317.948730,3988.205078,4222.051270,4147.179688,4082.051270,3981.538574,423.000000,4.000000,,,,0.000000,4.000000,4.000000,0.000000,4.000000,4.000000,4.000000,4.000000,4.000000,4.000000,1.000000,4.000000,4.000000,4.000000,2.000000,25.000000
1602278530.110057,117.000000,0.000000,3902.051270,4630.256348,4156.922852,4274.871582,4003.589844,4610.256348,3972.820557,3897.948730,4312.307617,3988.205078,4224.102539,4150.769043,4083.589844,3986.666748,357.000000,4.000000,,,,0.000000,4.000000,4.000000,0.000000,4.000000,4.000000,4.000000,4.000000,4.000000,4.000000,1.000000,4.000000,4.000000,4.000000,2.000000,25.000000
1602278530.117778,118.000000,0.000000,3896.923096,4624.102539,4158.974121,4263.077148,4003.076904,4607.179688,3968.718018,3893.846191,4303.589844,3988.718018,4212.820313,4141.025879,4070.256348,3977.948730,441.000000,4.000000,,,,0.000000,4.000000,4.000000,0.000000,4.000000,4.000000,4.000000,4.000000,4.000000,4.000000,1.000000,4.000000,4.000000,4.000000,2.000000,25.000000
1602278530.125600,119.000000,0.000000,3893.846191,4618.461426,4165.641113,4258.974121,3987.179443,4606.666504,3966.666748,3882.564209,4294.871582,3981.538574,4195.897461,4129.743652,4054.871826,3967.179443,240.000000,4.000000,,,,0.000000,4.000000,4.000000,0.000000,4.000000,4.000000,4.000000,4.000000,4.000000,4.000000,1.000000,4.000000,4.000000,4.000000,2.000000,25.000000
1602278530.133321,120.000000,0.000000,3891.794922,4620.512695,4163.077148,4266.153809,3980.000000,4604.102539,3968.718018,3878.461426,4291.794922,3977.435791,4194.358887,4126.666504,4051.281982,3970.256348,423.000000,4.000000,,,,0.000000,4.000000,4.000000,0.000000,4.000000,4.000000,4.000000,4.000000,4.000000,4.000000,1.000000,4.000000,4.000000,4.000000,2.000000,25.000000
1602278530.141142,121.000000,0.000000,3888.718018,4626.153809,4155.384766,4269.743652,3994.358887,4608.717773,3973.333252,3885.641113,4296.410156,3985.641113,4201.538574,4130.769043,4056.410156,3974.358887,357.000000,4.000000,,,,0.000000,4.000000,4.000000,0.000000,4.000000,4.000000,4.000000,4.000000,4.000000,4.000000,1.000000,4.000000,4.000000,4.000000,2.000000,25.000000
1602278530.148864,122.000000,0.000000,3891.281982,4629.230957,4155.897461,4273.333496,4004.615479,4617.436035,3977.435791,3891.794922,4304.615234,3990.769287,4202.051270,4136.410156,4063.076904,3973.846191,441.000000,4.000000,,,,0.000000,4.000000,4.000000,0.000000,4.000000,4.000000,4.000000,4.000000,4.000000,4.000000,1.000000,4.000000,4.000000,4.000000,2.000000,25.000000
1602278530.156685,123.000000,0.000000,3896.410156,4633.846191,4160.512695,4272.307617,3999.487061,4612.307617,3976.410156,3892.307617,4307.692383,3986.666748,4199.487305,4136.922852,4068.718018,3974.871826,240.000000,4.000000,,,,0.000000,4.000000,4.000000,0.000000,4.000000,4.000000,4.000000,4.000000,4.000000,4.000000,1.000000,4.000000,4.000000,4.000000,2.000000,25.000000
1602278530.164406,124.000000,0.000000,3896.410156,4635.384766,4156.922852,4267.692383,3991.794922,4606.666504,3972.820557,3895.384521,4307.179688,3986.666748,4205.128418,4135.897461,4072.307617,3975.384521,423.000000,4.000000,,,,0.000000,4.000000,4.000000,0.000000,4.000000,4.000000,4.000000,4.000000,4.000000,4.000000,1.000000,4.000000,4.000000,4.000000,2.000000,25.000000
1602278530.172227,125.000000,0.000000,3896.923096,4633.333496,4155.897461,4277.948730,3997.435791,4614.871582,3970.769287,3895.384521,4307.692383,3989.743652,4213.333496,4141.538574,4073.333252,3978.461426,357.000000,4.000000,,,,0.000000,4.000000,4.000000,0.000000,4.000000,4.000000,4.000000,4.000000,4.000000,4.000000,1.000000,4.000000,4.000000,4.000000,2.000000,25.000000
1602278530.179949,126.000000,0.000000,3897.435791,4637.436035,4159.487305,4283.589844,4005.641113,4609.743652,3969.743652,3885.641113,4301.538574,3988.718018,4207.179688,4142.051270,4067.179443,3981.538574,441.000000,4.000000,,,,0.000000,4.000000,4.000000,0.000000,4.000000,4.000000,4.000000,4.000000,4.000000,4.000000,1.000000,4.000000,4.000000,4.000000,2.000000,25.000000
1602278530.187770,127.000000,0.000000,3893.846191,4634.871582,4158.461426,4271.282227,4000.000000,4595.384766,3965.128174,3876.923096,4295.384766,3987.179443,4196.410156,4133.846191,4057.435791,3979.487061,240.000000,4.000000,,,,0.000000,4.000000,4.000000,0.000000,4.000000,4.000000,4.000000,4.000000,4.000000,4.000000,1.000000,4.000000,4.000000,4.000000,2.000000,25.000000
1602278530.195491,128.000000,0.000000,3887.179443,4623.589844,4155.384766,4262.563965,3990.256348,4602.051270,3965.641113,3878.461426,4296.922852,3987.692383,4196.922852,4129.743652,4053.333252,3974.871826,423.000000,4.000000,,,,0.000000,4.000000,4.000000,0.000000,4.000000,4.000000,4.000000,4.000000,4.000000,4.000000,1.000000,4.000000,4.000000,4.000000,2.000000,25.000000
1602278530.203412,0.000000,0.000000,3882.051270,4626.153809,4157.436035,4265.641113,3991.794922,4614.358887,3969.230713,3881.538574,4298.461426,3987.179443,4198.974121,4131.794922,4053.846191,3973.333252,0.000000,4.000000,,,,0.000000,4.000000,4.000000,0.000000,4.000000,4.000000,4.000000,4.000000,4.000000,4.000000,1.000000,4.000000,4.000000,4.000000,2.000000,25.000000
1602278530.211234,1.000000,0.000000,3888.718018,4626.666504,4161.538574,4262.051270,3995.384521,4609.230957,3965.641113,3877.435791,4296.410156,3987.179443,4202.563965,4135.897461,4060.512939,3977.435791,427.000000,4.000000,,,,0.000000,4.000000,4.000000,0.000000,4.000000,4.000000,4.000000,4.000000,4.000000,4.000000,1.000000,4.000000,4.000000,4.000000,2.000000,25.000000
1602278530.219155,2.000000,0.000000,3893.846191,4620.512695,4158.461426,4263.077148,3993.846191,4602.051270,3960.512939,3881.538574,4300.000000,3988.205078,4209.743652,4134.871582,4071.281982,3976.410156,389.000000,4.000000,,,,0.000000,4.000000,4.000000,0.000000,4.000000,4.000000,4.000000,4.000000,4.000000,4.000000,1.000000,4.000000,4.000000,4.000000,2.000000,25.000000
1602278530.226977,3.000000,0.000000,3889.230713,4629.230957,4157.436035,4268.205078,3993.846191,4606.666504,3962.564209,3893.333252,4308.205078,3989.743652,4206.666504,4130.769043,4074.871826,3972.820557,446.000000,4.000000,,,,0.000000,4.000000,4.000000,0.000000,4.000000,4.000000,4.000000,4.000000,4.000000,4.000000,1.000000,4.000000,4.000000,4.000000,2.000000,25.000000
1602278530.234898,4.000000,0.000000,3885.128174,4633.846191,4160.512695,4262.563965,3994.358887,4609.230957,3965.641113,3897.435791,4312.820313,3988.205078,4199.487305,4130.256348,4066.153809,3972.307617,481.000000,4.000000,,,,0.000000,4.000000,4.000000,0.000000,4.000000,4.000000,4.000000,4.000000,4.000000,4.000000,1.000000,4.000000,4.000000,4.000000,2.000000,25.000000
1602278530.242720,5.000000,0.000000,3883.589844,4623.077148,4160.000000,4264.615234,3996.410156,4608.205078,3966.153809,3891.794922,4315.384766,3987.692383,4201.538574,4130.769043,4059.487061,3974.358887,420.000000,4.000000,,,,0.000000,4.000000,4.000000,0.000000,4.000000,4.000000,4.000000,4.000000,4.000000,4.000000,1.000000,4.000000,4.000000,4.000000,2.000000,25.000000
1602278530.250641,6.000000,0.000000,3878.974365,4617.948730,4156.922852,4262.051270,3990.769287,4607.179688,3966.666748,3878.974365,4307.692383,3987.692383,4198.974121,4124.615234,4053.846191,3967.179443,469.000000,4.000000,,,,0.000000,4.000000,4.000000,0.000000,4.000000,4.000000,4.000000,4.000000,4.000000,4.000000,1.000000,4.000000,4.000000,4.000000,2.000000,25.000000
1602278530.258463,7.000000,0.000000,3887.179443,4625.128418,4158.974121,4249.230957,3988.205078,4608.717773,3967.692383,3874.871826,4296.410156,3983.589844,4192.820313,4126.153809,4049.230713,3965.128174,393.000000,4.000000,,,,0.000000,4.000000,4.000000,0.000000,4.000000,4.000000,4.000000,4.000000,4.000000,4.000000,1.000000,4.000000,4.000000,4.000000,2.000000,25.000000
1602278530.266384,8.000000,0.000000,3904.102539,4636.922852,4157.436035,4262.051270,4006.153809,4616.410156,3973.333252,3886.666748,4303.077148,3983.589844,4207.692383,4140.512695,4061.025635,3975.897461,416.000000,4.000000,,,,0.000000,4.000000,4.000000,0.000000,4.000000,4.000000,4.000000,4.000000,4.000000,4.000000,1.000000,4.000000,4.000000,4.000000,2.000000,25.000000
1602278530.274206,9.000000,0.000000,3904.615479,4641.538574,4156.410156,4290.769043,4010.769287,4622.051270,3977.435791,3893.846191,4311.282227,3987.692383,4220.000000,4146.666504,4071.794922,3981.538574,49.000000,4.000000,,,,0.000000,4.000000,4.000000,0.000000,4.000000,4.000000,4.000000,4.000000,4.000000,4.000000,1.000000,4.000000,4.000000,4.000000,2.000000,25.000000
1602278530.282127,10.000000,0.000000,3896.923096,4633.333496,4157.948730,4286.666504,3996.923096,4622.563965,3978.461426,3895.897461,4309.230957,3987.692383,4208.717773,4145.128418,4064.615479,3977.435791,442.000000,4.000000,,,,0.000000,4.000000,4.000000,0.000000,4.000000,4.000000,4.000000,4.000000,4.000000,4.000000,1.000000,4.000000,4.000000,4.000000,2.000000,25.000000
1602278530.289949,11.000000,0.000000,3897.435791,4630.769043,4161.538574,4265.641113,4005.128174,4626.153809,3982.564209,3904.102539,4313.333496,3986.666748,4207.179688,4148.717773,4058.974365,3980.512939,243.000000,4.000000,,,,0.000000,4.000000,4.000000,0.000000,4.000000,4.000000,4.000000,4.000000,4.000000,4.000000,1.000000,4.000000,4.000000,4.000000,2.000000,25.000000
1602278530.297670,12.000000,0.000000,3901.025635,4635.897461,4161.538574,4273.846191,4013.333252,4620.000000,3976.923096,3907.692383,4316.922852,3988.205078,4215.384766,4148.717773,4066.153809,3983.076904,423.000000,4.000000,,,,0.000000,4.000000,4.000000,0.000000,4.000000,4.000000,4.000000,4.000000,4.000000,4.000000,1.000000,4.000000,4.000000,4.000000,2.000000,25.000000
1602278530.305491,13.000000,0.000000,3898.461426,4636.410156,4160.000000,4285.128418,3996.923096,4604.102539,3968.205078,3902.564209,4313.846191,3987.179443,4219.487305,4144.615234,4075.897461,3977.435791,357.000000,4.000000,,,,0.000000,4.000000,4.000000,0.000000,4.000000,4.000000,4.000000,4.000000,4.000000,4.000000,1.000000,4.000000,4.000000,4.000000,2.000000,25.000000
1602278530.313213,14.000000,0.000000,3893.846191,4636.410156,4160.512695,4278.461426,3993.846191,4602.051270,3973.846191,3903.589844,4313.333496,3985.641113,4216.922852,4144.615234,4075.897461,3973.333252,442.000000,4.000000,,,,0.000000,4.000000,4.000000,0.000000,4.000000,4.000000,4.000000,4.000000,4.000000,4.000000,1.000000,4.000000,4.000000,4.000000,2.000000,25.000000
1602278530.321034,15.000000,0.000000,3891.794922,4636.410156,4162.563965,4261.538574,4004.102539,4614.871582,3982.051270,3904.102539,4314.358887,3987.179443,4202.563965,4140.512695,4064.102539,3971.794922,243.000000,4.000000,,,,0.000000,4.000000,4.000000,0.000000,4.000000,4.000000,4.000000,4.000000,4.000000,4.000000,1.000000,4.000000,4.000000,4.000000,2.000000,25.000000
1602278530.328755,16.000000,0.000000,3890.769287,4628.205078,4163.077148,4249.743652,3999.487061,4620.000000,3982.051270,3898.461426,4310.769043,3987.179443,4193.333496,4129.743652,4050.769287,3970.256348,0.000000,4.000000,,,,0.000000,4.000000,4.000000,0.000000,4.000000,4.000000,4.000000,4.000000,4.000000,4.000000,1.000000,4.000000,4.000000,4.000000,2.000000,25.000000
1602278530.336577,17.000000,0.000000,3887.692383,4616.410156,4161.025879,4255.897461,3994.358887,4614.358887,3980.000000,3895.384521,4311.794922,3986.153809,4197.948730,4127.692383,4047.179443,3971.281982,0.000000,4.000000,,,,0.000000,4.000000,4.000000,0.000000,4.000000,4.000000,4.000000,4.000000,4.000000,4.000000,1.000000,4.000000,4.000000,4.000000,2.000000,25.000000
1602278530.344298,18.000000,0.000000,3885.641113,4611.282227,4158.974121,4266.666504,3989.743652,4606.666504,3972.307617,3891.281982,4312.820313,3983.076904,4193.333496,4129.743652,4044.102539,3970.769287,0.000000,4.000000,,,,0.000000,4.000000,4.000000,0.000000,4.000000,4.000000,4.000000,4.000000,4.000000,4.000000,1.000000,4.000000,4.000000,4.000000,2.000000,25.000000
1602278530.352119,19.000000,0.000000,3884.102539,4623.589844,4156.922852,4272.820313,3991.281982,4608.205078,3966.153809,3889.743652,4308.717773,3982.564209,4190.256348,4131.282227,4049.230713,3967.692383,0.000000,4.000000,,,,0.000000,4.000000,4.000000,0.000000,4.000000,4.000000,4.000000,4.000000,4.000000,4.000000,1.000000,4.000000,4.000000,4.000000,2.000000,25.000000
1602278530.359840,20.000000,0.000000,3888.205078,4638.974121,4160.512695,4272.307617,4008.205078,4614.871582,3971.794922,3894.358887,4310.769043,3986.666748,4206.666504,4138.461426,4065.641113,3973.846191,0.000000,4.000000,,,,0.000000,4.000000,4.000000,0.000000,4.000000,4.000000,4.000000,4.000000,4.000000,4.000000,1.000000,4.000000,4.000000,4.000000,2.000000,25.000000
1602278530.367661,21.000000,0.000000,3888.205078,4636.410156,4162.051270,4266.666504,4011.281982,4615.384766,3972.820557,3895.897461,4309.743652,3987.692383,4206.666504,4138.461426,4062.051270,3974.871826,0.000000,4.000000,,,,0.000000,4.000000,4.000000,0.000000,4.000000,4.000000,4.000000,4.000000,4.000000,4.000000,1.000000,4.000000,4.000000,4.000000,2.000000,25.000000
1602278530.375382,22.000000,0.000000,3885.128174,4628.717773,4158.461426,4265.128418,4004.102539,4611.794922,3968.718018,3894.871826,4303.589844,3985.641113,4196.922852,4132.307617,4050.256348,3967.692383,0.000000,4.000000,,,,0.000000,4.000000,4.000000,0.000000,4.000000,4.000000,4.000000,4.000000,4.000000,4.000000,1.000000,4.000000,4.000000,4.000000,2.000000,25.000000
1602278530.383304,23.000000,0.000000,3891.794922,4633.333496,4156.410156,4266.666504,4009.230713,4609.230957,3966.666748,3897.435791,4305.641113,3985.128174,4205.128418,4136.922852,4062.051270,3969.743652,0.000000,4.000000,,,,0.000000,4.000000,4.000000,0.000000,4.000000,4.000000,4.000000,4.000000,4.000000,4.000000,1.000000,4.000000,4.000000,4.000000,2.000000,25.000000
1602278530.391125,24.000000,0.000000,3897.435791,4643.077148,4162.563965,4267.179688,4007.692383,4605.128418,3961.025635,3898.461426,4311.794922,3987.692383,4211.794922,4140.512695,4074.358887,3976.923096,0.000000,4.000000,,,,0.000000,4.000000,4.000000,0.000000,4.000000,4.000000,4.000000,4.000000,4.000000,4.000000,1.000000,4.000000,4.000000,4.000000,2.000000,25.000000
1602278530.399047,25.000000,0.000000,3890.256348,4646.666504,4161.538574,4267.692383,3998.461426,4604.615234,3961.025635,3901.538574,4312.307617,3989.230713,4209.230957,4132.307617,4067.179443,3975.384521,0.000000,4.000000,,,,0.000000,4.000000,4.000000,0.000000,4.000000,4.000000,4.000000,4.000000,4.000000,4.000000,1.000000,4.000000,4.000000,4.000000,2.000000,25.000000
1602278530.406869,26.000000,0.000000,3884.102539,4638.974121,4160.000000,4271.794922,3994.358887,4605.641113,3970.769287,3901.538574,4307.692383,3986.153809,4206.666504,4126.666504,4058.974365,3972.307617,0.000000,4.000000,,,,0.000000,4.000000,4.000000,0.000000,4.000000,4.000000,4.000000,4.000000,4.000000,4.000000,1.000000,4.000000,4.000000,4.000000,2.000000,25.000000
1602278530.414790,27.000000,0.000000,3887.179443,4634.358887,4158.461426,4272.307617,3992.307617,4608.205078,3973.846191,3894.358887,4309.743652,3983.076904,4205.641113,4128.717773,4062.051270,3973.846191,0.000000,4.000000,,,,0.000000,4.000000,4.000000,0.000000,4.000000,4.000000,4.000000,4.000000,4.000000,4.000000,1.000000,4.000000,4.000000,4.000000,2.000000,25.000000
1602278530.422612,28.000000,0.000000,3888.718018,4637.436035,4160.512695,4265.641113,3992.307617,4612.820313,3973.846191,3892.307617,4312.307617,3986.153809,4204.102539,4131.794922,4064.102539,3977.948730,0.000000,4.000000,,,,0.000000,4.000000,4.000000,0.000000,4.000000,4.000000,4.000000,4.000000,4.000000,4.000000,1.000000,4.000000,4.000000,4.000000,2.000000,25.000000
1602278530.430533,29.000000,0.000000,3890.256348,4632.307617,4163.589844,4257.948730,3992.307617,4613.333496,3975.384521,3897.435791,4310.256348,3988.205078,4206.666504,4132.820313,4064.615479,3978.974365,0.000000,4.000000,,,,0.000000,4.000000,4.000000,0.000000,4.000000,4.000000,4.000000,4.000000,4.000000,4.000000,1.000000,4.000000,4.000000,4.000000,2.000000,25.000000
1602278530.438355,30.000000,0.000000,3889.743652,4623.077148,4159.487305,4259.487305,3987.692383,4610.256348,3971.794922,3901.538574,4312.820313,3986.666748,4212.820313,4135.384766,4066.153809,3975.384521,0.000000,4.000000,,,,0.000000,4.000000,4.000000,0.000000,4.000000,4.000000,4.000000,4.000000,4.000000,4.000000,1.000000,4.000000,4.000000,4.000000,2.000000,25.000000
1602278530.446276,31.000000,0.000000,3889.230713,4629.743652,4155.897461,4266.666504,3992.307617,4606.153809,3968.205078,3908.205078,4317.436035,3987.692383,4218.974121,4143.589844,4070.256348,3977.948730,0.000000,4.000000,,,,0.000000,4.000000,4.000000,0.000000,4.000000,4.000000,4.000000,4.000000,4.000000,4.000000,1.000000,4.000000,4.000000,4.000000,2.000000,25.000000
1602278530.454097,32.000000,0.000000,3899.487061,4637.948730,4161.025879,4267.179688,3995.897461,4602.563965,3966.153809,3908.205078,4317.436035,3988.205078,4226.153809,4150.769043,4076.923096,3985.641113,0.000000,4.000000,,,,0.000000,4.000000,4.000000,0.000000,4.000000,4.000000,4.000000,4.000000,4.000000,4.000000,1.000000,4.000000,4.000000,4.000000,2.000000,25.000000
1602278530.462018,33.000000,0.000000,3908.205078,4633.333496,4161.538574,4271.282227,3983.076904,4601.538574,3962.051270,3901.025635,4315.384766,3987.179443,4230.769043,4150.256348,4073.846191,3985.128174,0.000000,4.000000,,,,0.000000,4.000000,4.000000,0.000000,4.000000,4.000000,4.000000,4.000000,4.000000,4.000000,1.000000,4.000000,4.000000,4.000000,2.000000,25.000000
1602278530.469840,34.000000,0.000000,3905.641113,4628.717773,4155.897461,4277.948730,3976.923096,4603.077148,3960.000000,3900.000000,4313.846191,3987.179443,4226.666504,4150.256348,4064.102539,3981.025635,0.000000,4.000000,,,,0.000000,4.000000,4.000000,0.000000,4.000000,4.000000,4.000000,4.000000,4.000000,4.000000,1.000000,4.000000,4.000000,4.000000,2.000000,25.000000
1602278530.477661,35.000000,0.000000,3895.897461,4633.333496,4156.922852,4275.897461,3990.769287,4601.538574,3961.538574,3901.025635,4309.230957,3986.153809,4215.897461,4147.179688,4059.487061,3981.025635,0.000000,4.000000,,,,0.000000,4.000000,4.000000,0.000000,4.000000,4.000000,4.000000,4.000000,4.000000,4.000000,1.000000,4.000000,4.000000,4.000000,2.000000,25.000000
1602278530.485482,36.000000,0.000000,3888.205078,4637.436035,4160.000000,4264.102539,4005.128174,4605.641113,3965.128174,3897.948730,4307.692383,3985.641113,4213.846191,4134.871582,4063.076904,3974.358887,0.000000,4.000000,,,,0.000000,4.000000,4.000000,0.000000,4.000000,4.000000,4.000000,4.000000,4.000000,4.000000,1.000000,4.000000,4.000000,4.000000,2.000000,25.000000
1602278530.493204,37.000000,0.000000,3885.128174,4630.256348,4160.512695,4250.769043,4000.512939,4608.717773,3969.230713,3897.948730,4304.102539,3986.666748,4211.282227,4127.692383,4059.487061,3970.256348,0.000000,4.000000,,,,0.000000,4.000000,4.000000,0.000000,4.000000,4.000000,4.000000,4.000000,4.000000,4.000000,1.000000,4.000000,4.000000,4.000000,2.000000,25.000000
1602278530.501025,38.000000,0.000000,3884.615479,4632.307617,4157.436035,4253.333496,3994.871826,4606.153809,3974.871826,3899.487061,4299.487305,3988.205078,4205.128418,4129.230957,4057.435791,3972.820557,0.000000,4.000000,,,,0.000000,4.000000,4.000000,0.000000,4.000000,4.000000,4.000000,4.000000,4.000000,4.000000,1.000000,4.000000,4.000000,4.000000,2.000000,25.000000
1602278530.508746,39.000000,0.000000,3891.794922,4642.563965,4155.897461,4264.615234,4004.102539,4614.358887,3983.589844,3900.512939,4312.307617,3988.205078,4216.922852,4132.820313,4071.794922,3976.923096,0.000000,4.000000,,,,0.000000,4.000000,4.000000,0.000000,4.000000,4.000000,4.000000,4.000000,4.000000,4.000000,1.000000,4.000000,4.000000,4.000000,2.000000,25.000000
1602278530.516568,40.000000,0.000000,3905.128174,4641.538574,4156.410156,4261.025879,4007.692383,4627.179688,3988.718018,3905.128174,4329.743652,3988.205078,4233.846191,4140.000000,4074.358887,3982.564209,0.000000,4.000000,,,,0.000000,4.000000,4.000000,0.000000,4.000000,4.000000,4.000000,4.000000,4.000000,4.000000,1.000000,4.000000,4.000000,4.000000,2.000000,25.000000
1602278530.524289,41.000000,0.000000,3911.281982,4635.384766,4162.563965,4249.743652,4003.076904,4620.000000,3982.564209,3904.615479,4325.128418,3989.230713,4230.256348,4148.205078,4061.025635,3987.179443,0.000000,4.000000,,,,0.000000,4.000000,4.000000,0.000000,4.000000,4.000000,4.000000,4.000000,4.000000,4.000000,1.000000,4.000000,4.000000,4.000000,2.000000,25.000000
1602278530.532111,42.000000,0.000000,3901.025635,4633.846191,4162.563965,4246.666504,4004.615479,4606.666504,3971.281982,3894.871826,4315.897461,3988.205078,4221.025879,4146.153809,4067.179443,3980.512939,0.000000,4.000000,,,,0.000000,4.000000,4.000000,0.000000,4.000000,4.000000,4.000000,4.000000,4.000000,4.000000,1.000000,4.000000,4.000000,4.000000,2.000000,25.000000
1602278530.539832,43.000000,0.000000,3893.333252,4632.307617,4158.974121,4242.563965,4000.000000,4611.282227,3967.692383,3891.281982,4315.897461,3987.179443,4221.538574,4141.538574,4084.615479,3973.846191,0.000000,4.000000,,,,0.000000,4.000000,4.000000,0.000000,4.000000,4.000000,4.000000,4.000000,4.000000,4.000000,1.000000,4.000000,4.000000,4.000000,2.000000,25.000000
1602278530.547653,44.000000,0.000000,3897.948730,4630.256348,4157.948730,4243.589844,3991.281982,4620.000000,3977.435791,3903.589844,4316.922852,3990.256348,4227.179688,4146.153809,4087.179443,3981.025635,0.000000,4.000000,,,,0.000000,4.000000,4.000000,0.000000,4.000000,4.000000,4.000000,4.000000,4.000000,4.000000,1.000000,4.000000,4.000000,4.000000,2.000000,25.000000
1602278530.555374,45.000000,0.000000,3908.205078,4636.410156,4161.538574,4258.461426,4006.153809,4622.051270,3988.205078,3915.897461,4313.333496,3992.820557,4232.820313,4158.461426,4086.666748,3991.281982,0.000000,4.000000,,,,0.000000,4.000000,4.000000,0.000000,4.000000,4.000000,4.000000,4.000000,4.000000,4.000000,1.000000,4.000000,4.000000,4.000000,2.000000,25.000000
1602278530.563295,46.000000,0.000000,3910.256348,4632.820313,4164.102539,4248.717773,4016.923096,4619.487305,3979.487061,3905.641113,4301.538574,3989.743652,4228.205078,4158.461426,4081.538574,3988.205078,0.000000,4.000000,,,,0.000000,4.000000,4.000000,0.000000,4.000000,4.000000,4.000000,4.000000,4.000000,4.000000,1.000000,4.000000,4.000000,4.000000,2.000000,25.000000
1602278530.571117,47.000000,0.000000,3901.538574,4621.538574,4160.000000,4225.128418,4000.000000,4611.794922,3971.794922,3891.794922,4292.820313,3986.666748,4222.563965,4148.205078,4069.230713,3983.076904,0.000000,4.000000,,,,0.000000,4.000000,4.000000,0.000000,4.000000,4.000000,4.000000,4.000000,4.000000,4.000000,1.000000,4.000000,4.000000,4.000000,2.000000,25.000000
1602278530.579038,48.000000,0.000000,3898.461426,4625.641113,4156.922852,4238.974121,3988.205078,4609.743652,3983.076904,3896.923096,4298.461426,3988.718018,4231.282227,4148.717773,4074.871826,3988.718018,0.000000,4.000000,,,,0.000000,4.000000,4.000000,0.000000,4.000000,4.000000,4.000000,4.000000,4.000000,4.000000,1.000000,4.000000,4.000000,4.000000,2.000000,25.000000
1602278530.586860,49.000000,0.000000,3896.923096,4635.384766,4159.487305,4258.461426,3992.820557,4613.846191,3987.692383,3902.051270,4302.563965,3989.230713,4232.820313,4150.769043,4083.076904,3988.205078,0.000000,4.000000,,,,0.000000,4.000000,4.000000,0.000000,4.000000,4.000000,4.000000,4.000000,4.000000,4.000000,1.000000,4.000000,4.000000,4.000000,2.000000,25.000000
1602278530.594781,50.000000,0.000000,3892.307617,4630.769043,4162.051270,4241.538574,3996.410156,4613.333496,3978.974365,3895.897461,4297.948730,3987.692383,4213.846191,4143.077148,4071.794922,3978.461426,0.000000,4.000000,,,,0.000000,4.000000,4.000000,0.000000,4.000000,4.000000,4.000000,4.000000,4.000000,4.000000,1.000000,4.000000,4.000000,4.000000,2.000000,25.000000
1602278530.602603,51.000000,0.000000,3892.820557,4626.666504,4161.538574,4230.256348,3998.461426,4609.743652,3977.948730,3892.307617,4298.974121,3988.205078,4206.153809,4139.487305,4063.076904,3975.897461,0.000000,4.000000,,,,0.000000,4.000000,4.000000,0.000000,4.000000,4.000000,4.000000,4.000000,4.000000,4.000000,1.000000,4.000000,4.000000,4.000000,2.000000,25.000000
1602278530.610524,52.000000,0.000000,3895.897461,4635.897461,4161.538574,4243.077148,3999.487061,4609.743652,3978.974365,3897.435791,4304.615234,3988.205078,4211.794922,4143.077148,4063.076904,3978.974365,0.000000,4.000000,,,,0.000000,4.000000,4.000000,0.000000,4.000000,4.000000,4.000000,4.000000,4.000000,4.000000,1.000000,4.000000,4.000000,4.000000,2.000000,25.000000
1602278530.618346,53.000000,0.000000,3895.897461,4640.000000,4160.000000,4247.179688,4000.512939,4606.666504,3972.307617,3903.589844,4304.102539,3988.205078,4213.333496,4140.512695,4065.641113,3977.948730,0.000000,4.000000,,,,0.000000,4.000000,4.000000,0.000000,4.000000,4.000000,4.000000,4.000000,4.000000,4.000000,1.000000,4.000000,4.000000,4.000000,2.000000,25.000000
1602278530.626267,54.000000,0.000000,3897.948730,4636.410156,4160.000000,4247.692383,4008.205078,4603.077148,3966.666748,3904.102539,4301.025879,3990.256348,4214.358887,4142.051270,4072.307617,3982.051270,0.000000,4.000000,,,,0.000000,4.000000,4.000000,0.000000,4.000000,4.000000,4.000000,4.000000,4.000000,4.000000,1.000000,4.000000,4.000000,4.000000,2.000000,25.000000
1602278530.634089,55.000000,0.000000,3900.000000,4637.436035,4157.948730,4250.769043,4007.179443,4607.179688,3969.743652,3895.897461,4301.025879,3989.743652,4212.820313,4144.102539,4067.692383,3983.076904,0.000000,4.000000,,,,0.000000,4.000000,4.000000,0.000000,4.000000,4.000000,4.000000,4.000000,4.000000,4.000000,1.000000,4.000000,4.000000,4.000000,2.000000,25.000000
1602278530.642010,56.000000,0.000000,3897.948730,4638.461426,4153.846191,4248.205078,3993.846191,4614.871582,3974.871826,3891.794922,4302.051270,3986.666748,4205.128418,4136.922852,4058.461426,3977.948730,0.000000,4.000000,,,,0.000000,4.000000,4.000000,0.000000,4.000000,4.000000,4.000000,4.000000,4.000000,4.000000,1.000000,4.000000,4.000000,4.000000,2.000000,25.000000
1602278530.649831,57.000000,0.000000,3894.871826,4635.897461,4153.333496,4247.179688,3994.358887,4614.358887,3973.846191,3895.897461,4300.000000,3986.666748,4201.538574,4137.436035,4065.641113,3980.000000,0.000000,4.000000,,,,0.000000,4.000000,4.000000,0.000000,4.000000,4.000000,4.000000,4.000000,4.000000,4.000000,1.000000,4.000000,4.000000,4.000000,2.000000,25.000000
1602278530.657553,58.000000,0.000000,3890.769287,4630.769043,4158.974121,4244.615234,3997.435791,4607.692383,3971.794922,3890.256348,4291.794922,3984.102539,4202.563965,4140.000000,4064.615479,3981.538574,0.000000,4.000000,,,,0.000000,4.000000,4.000000,0.000000,4.000000,4.000000,4.000000,4.000000,4.000000,4.000000,1.000000,4.000000,4.000000,4.000000,2.000000,25.000000
1602278530.665374,59.000000,0.000000,3885.641113,4628.717773,4157.436035,4242.051270,3989.743652,4607.179688,3977.435791,3883.589844,4289.743652,3983.589844,4201.025879,4131.794922,4052.307617,3972.820557,0.000000,4.000000,,,,0.000000,4.000000,4.000000,0.000000,4.000000,4.000000,4.000000,4.000000,4.000000,4.000000,1.000000,4.000000,4.000000,4.000000,2.000000,25.000000
1602278530.673095,60.000000,0.000000,3891.794922,4631.282227,4156.410156,4246.153809,3996.923096,4608.717773,3982.564209,3892.307617,4295.897461,3988.205078,4204.102539,4130.256348,4064.102539,3974.358887,0.000000,4.000000,,,,0.000000,4.000000,4.000000,0.000000,4.000000,4.000000,4.000000,4.000000,4.000000,4.000000,1.000000,4.000000,4.000000,4.000000,2.000000,25.000000
1602278530.680917,61.000000,0.000000,3902.051270,4630.769043,4158.974121,4248.205078,4014.358887,4608.205078,3975.897461,3897.948730,4304.102539,3990.769287,4214.358887,4140.512695,4080.512939,3984.102539,0.000000,4.000000,,,,0.000000,4.000000,4.000000,0.000000,4.000000,4.000000,4.000000,4.000000,4.000000,4.000000,1.000000,4.000000,4.000000,4.000000,2.000000,25.000000
1602278530.688638,62.000000,0.000000,3898.974365,4631.794922,4160.000000,4248.717773,4009.230713,4611.282227,3970.769287,3897.435791,4313.846191,3989.230713,4218.461426,4145.641113,4075.897461,3983.076904,0.000000,4.000000,,,,0.000000,4.000000,4.000000,0.000000,4.000000,4.000000,4.000000,4.000000,4.000000,4.000000,1.000000,4.000000,4.000000,4.000000,2.000000,25.000000
1602278530.696459,63.000000,0.000000,3886.153809,4621.538574,4159.487305,4248.717773,3989.230713,4607.179688,3970.256348,3897.948730,4311.794922,3988.205078,4210.256348,4142.051270,4065.128174,3976.410156,0.000000,4.000000,,,,0.000000,4.000000,4.000000,0.000000,4.000000,4.000000,4.000000,4.000000,4.000000,4.000000,1.000000,4.000000,4.000000,4.000000,2.000000,25.000000
1602278530.704181,64.000000,0.000000,3884.615479,4598.461426,4160.000000,4246.153809,3988.205078,4599.487305,3971.794922,3888.718018,4296.922852,3986.666748,4200.000000,4135.897461,4061.025635,3974.358887,0.000000,4.000000,,,,0.000000,4.000000,4.000000,0.000000,4.000000,4.000000,4.000000,4.000000,4.000000,4.000000,1.000000,4.000000,4.000000,4.000000,2.000000,25.000000
1602278530.712002,65.000000,0.000000,3893.333252,4599.487305,4161.025879,4245.128418,4003.589844,4603.077148,3975.897461,3881.538574,4291.794922,3989.743652,4196.410156,4133.333496,4055.384521,3976.923096,427.000000,4.000000,,,,0.000000,4.000000,4.000000,0.000000,4.000000,4.000000,4.000000,4.000000,4.000000,4.000000,1.000000,4.000000,4.000000,4.000000,2.000000,25.000000
1602278530.719724,66.000000,0.000000,3892.307617,4626.153809,4159.487305,4245.128418,4002.051270,4605.641113,3970.769287,3882.564209,4296.410156,3988.205078,4195.897461,4134.358887,4050.769287,3976.410156,389.000000,4.000000,,,,0.000000,4.000000,4.000000,0.000000,4.000000,4.000000,4.000000,4.000000,4.000000,4.000000,1.000000,4.000000,4.000000,4.000000,2.000000,25.000000
1602278530.727545,67.000000,0.000000,3887.692383,4632.307617,4160.000000,4246.666504,3992.307617,4603.589844,3963.589844,3872.820557,4286.153809,3980.512939,4197.436035,4133.846191,4055.897461,3980.000000,446.000000,4.000000,,,,0.000000,4.000000,4.000000,0.000000,4.000000,4.000000,4.000000,4.000000,4.000000,4.000000,1.000000,4.000000,4.000000,4.000000,2.000000,25.000000
1602278530.735266,68.000000,0.000000,3892.307617,4625.128418,4158.974121,4252.307617,3998.974365,4606.666504,3965.128174,3865.128174,4273.846191,3982.051270,4197.948730,4132.820313,4057.435791,3983.589844,481.000000,4.000000,,,,0.000000,4.000000,4.000000,0.000000,4.000000,4.000000,4.000000,4.000000,4.000000,4.000000,1.000000,4.000000,4.000000,4.000000,2.000000,25.000000
1602278530.743087,69.000000,0.000000,3898.461426,4640.512695,4157.436035,4255.384766,4002.051270,4609.743652,3968.718018,3877.435791,4282.051270,3985.128174,4198.461426,4131.794922,4052.820557,3979.487061,420.000000,4.000000,,,,0.000000,4.000000,4.000000,0.000000,4.000000,4.000000,4.000000,4.000000,4.000000,4.000000,1.000000,4.000000,4.000000,4.000000,2.000000,25.000000
1602278530.750808,70.000000,0.000000,3895.897461,4651.794922,4156.410156,4248.717773,3990.769287,4601.538574,3965.128174,3883.589844,4288.205078,3975.384521,4194.358887,4129.230957,4052.307617,3972.820557,469.000000,4.000000,,,,0.000000,4.000000,4.000000,0.000000,4.000000,4.000000,4.000000,4.000000,4.000000,4.000000,1.000000,4.000000,4.000000,4.000000,2.000000,25.000000
1602278530.758730,71.000000,0.000000,3895.384521,4640.512695,4158.461426,4245.128418,3995.384521,4586.666504,3956.923096,3874.871826,4279.487305,3971.794922,4190.256348,4132.820313,4054.358887,3972.820557,393.000000,4.000000,,,,0.000000,4.000000,4.000000,0.000000,4.000000,4.000000,4.000000,4.000000,4.000000,4.000000,1.000000,4.000000,4.000000,4.000000,2.000000,25.000000
1602278530.766551,72.000000,0.000000,3896.923096,4635.384766,4156.922852,4254.358887,4006.666748,4591.794922,3959.487061,3881.025635,4288.205078,3982.564209,4200.000000,4137.948730,4058.461426,3977.435791,416.000000,4.000000,,,,0.000000,4.000000,4.000000,0.000000,4.000000,4.000000,4.000000,4.000000,4.000000,4.000000,1.000000,4.000000,4.000000,4.000000,2.000000,25.000000
1602278530.774473,73.000000,0.000000,3892.307617,4638.974121,4157.436035,4259.487305,4001.025635,4609.230957,3970.256348,3896.410156,4309.230957,3987.692383,4210.769043,4137.436035,4066.666748,3981.538574,49.000000,4.000000,,,,0.000000,4.000000,4.000000,0.000000,4.000000,4.000000,4.000000,4.000000,4.000000,4.000000,1.000000,4.000000,4.000000,4.000000,2.000000,25.000000
1602278530.782294,74.000000,0.000000,3887.692383,4634.358887,4160.000000,4247.692383,3995.897461,4608.717773,3975.384521,3897.948730,4310.256348,3986.153809,4205.128418,4135.384766,4073.846191,3979.487061,442.000000,4.000000,,,,0.000000,4.000000,4.000000,0.000000,4.000000,4.000000,4.000000,4.000000,4.000000,4.000000,1.000000,4.000000,4.000000,4.000000,2.000000,25.000000
1602278530.790216,75.000000,0.000000,3885.641113,4622.563965,4159.487305,4236.922852,3989.230713,4598.461426,3965.641113,3887.179443,4295.897461,3986.153809,4197.948730,4132.820313,4063.076904,3974.871826,243.000000,4.000000,,,,0.000000,4.000000,4.000000,0.000000,4.000000,4.000000,4.000000,4.000000,4.000000,4.000000,1.000000,4.000000,4.000000,4.000000,2.000000,25.000000
1602278530.798037,76.000000,0.000000,3889.743652,4617.948730,4156.410156,4246.666504,3987.179443,4600.000000,3958.974365,3883.076904,4291.794922,3982.564209,4201.025879,4131.282227,4055.897461,3974.358887,425.000000,4.000000,,,,0.000000,4.000000,4.000000,0.000000,4.000000,4.000000,4.000000,4.000000,4.000000,4.000000,1.000000,4.000000,4.000000,4.000000,2.000000,25.000000
1602278530.805959,77.000000,0.000000,3900.512939,4623.589844,4158.974121,4257.948730,4002.564209,4603.077148,3964.615479,3886.666748,4293.333496,3983.589844,4203.589844,4134.871582,4067.692383,3979.487061,357.000000,4.000000,,,,0.000000,4.000000,4.000000,0.000000,4.000000,4.000000,4.000000,4.000000,4.000000,4.000000,1.000000,4.000000,4.000000,4.000000,2.000000,25.000000
1602278530.813780,78.000000,0.000000,3901.538574,4629.743652,4162.051270,4253.846191,4004.615479,4596.922852,3969.743652,3887.179443,4293.333496,3988.205078,4205.641113,4142.051270,4063.589844,3979.487061,442.000000,4.000000,,,,0.000000,4.000000,4.000000,0.000000,4.000000,4.000000,4.000000,4.000000,4.000000,4.000000,1.000000,4.000000,4.000000,4.000000,2.000000,25.000000
1602278530.821701,79.000000,0.000000,3893.846191,4631.794922,4162.563965,4248.205078,3988.718018,4597.436035,3966.153809,3889.230713,4295.384766,3987.692383,4206.153809,4141.025879,4045.128174,3976.923096,243.000000,4.000000,,,,0.000000,4.000000,4.000000,0.000000,4.000000,4.000000,4.000000,4.000000,4.000000,4.000000,1.000000,4.000000,4.000000,4.000000,2.000000,25.000000
1602278530.829522,80.000000,0.000000,3894.871826,4631.794922,4162.051270,4247.692383,3987.692383,4597.948730,3960.000000,3894.358887,4298.461426,3985.128174,4203.077148,4135.384766,4055.384521,3979.487061,425.000000,4.000000,,,,0.000000,4.000000,4.000000,0.000000,4.000000,4.000000,4.000000,4.000000,4.000000,4.000000,1.000000,4.000000,4.000000,4.000000,2.000000,25.000000
1602278530.837344,81.000000,0.000000,3903.076904,4632.307617,4163.077148,4247.692383,3997.948730,4597.436035,3965.128174,3895.897461,4302.563965,3987.692383,4201.538574,4137.436035,4076.923096,3983.589844,357.000000,4.000000,,,,0.000000,4.000000,4.000000,0.000000,4.000000,4.000000,4.000000,4.000000,4.000000,4.000000,1.000000,4.000000,4.000000,4.000000,2.000000,25.000000
1602278530.845165,82.000000,0.000000,3904.102539,4631.282227,4163.077148,4251.282227,3998.974365,4607.692383,3972.307617,3892.820557,4301.538574,3988.205078,4195.897461,4137.436035,4064.102539,3982.564209,442.000000,4.000000,,,,0.000000,4.000000,4.000000,0.000000,4.000000,4.000000,4.000000,4.000000,4.000000,4.000000,1.000000,4.000000,4.000000,4.000000,2.000000,25.000000
1602278530.852886,83.000000,0.000000,3900.000000,4630.256348,4159.487305,4257.436035,3994.871826,4613.333496,3970.769287,3890.769287,4292.820313,3985.128174,4190.769043,4131.282227,4048.205078,3980.000000,243.000000,4.000000,,,,0.000000,4.000000,4.000000,0.000000,4.000000,4.000000,4.000000,4.000000,4.000000,4.000000,1.000000,4.000000,4.000000,4.000000,2.000000,25.000000
1602278530.860708,84.000000,0.000000,3901.025635,4634.871582,4158.974121,4255.384766,3994.871826,4608.205078,3969.230713,3889.743652,4292.820313,3985.128174,4197.948730,4136.410156,4063.589844,3988.718018,425.000000,4.000000,,,,0.000000,4.000000,4.000000,0.000000,4.000000,4.000000,4.000000,4.000000,4.000000,4.000000,1.000000,4.000000,4.000000,4.000000,2.000000,25.000000
1602278530.868429,85.000000,0.000000,3906.153809,4645.641113,4161.025879,4254.871582,4006.153809,4605.641113,3974.871826,3893.846191,4304.102539,3988.205078,4211.282227,4147.692383,4079.487061,3993.333252,357.000000,4.000000,,,,0.000000,4.000000,4.000000,0.000000,4.000000,4.000000,4.000000,4.000000,4.000000,4.000000,1.000000,4.000000,4.000000,4.000000,2.000000,25.000000
1602278530.876251,86.000000,0.000000,3905.641113,4646.666504,4162.563965,4267.179688,4013.846191,4609.743652,3976.923096,3897.435791,4306.153809,3990.769287,4212.307617,4147.179688,4076.923096,3988.718018,442.000000,4.000000,,,,0.000000,4.000000,4.000000,0.000000,4.000000,4.000000,4.000000,4.000000,4.000000,4.000000,1.000000,4.000000,4.000000,4.000000,2.000000,25.000000
1602278530.883972,87.000000,0.000000,3901.025635,4631.282227,4159.487305,4268.205078,4009.230713,4610.769043,3972.307617,3893.846191,4296.410156,3988.205078,4201.025879,4141.538574,4071.794922,3983.076904,243.000000,4.000000,,,,0.000000,4.000000,4.000000,0.000000,4.000000,4.000000,4.000000,4.000000,4.000000,4.000000,1.000000,4.000000,4.000000,4.000000,2.000000,25.000000
1602278530.891793,88.000000,0.000000,3902.564209,4624.102539,4160.000000,4251.794922,4009.230713,4607.179688,3973.333252,3892.820557,4295.897461,3984.615479,4198.461426,4143.077148,4072.307617,3985.128174,425.000000,4.000000,,,,0.000000,4.000000,4.000000,0.000000,4.000000,4.000000,4.000000,4.000000,4.000000,4.000000,1.000000,4.000000,4.000000,4.000000,2.000000,25.000000
1602278530.899515,89.000000,0.000000,3904.102539,4636.922852,4161.538574,4250.769043,4010.769287,4608.717773,3975.384521,3895.384521,4298.974121,3985.641113,4203.589844,4144.615234,4072.820557,3988.205078,357.000000,4.000000,,,,0.000000,4.000000,4.000000,0.000000,4.000000,4.000000,4.000000,4.000000,4.000000,4.000000,1.000000,4.000000,4.000000,4.000000,2.000000,25.000000
1602278530.907336,90.000000,0.000000,3900.000000,4643.589844,4160.512695,4262.051270,4006.153809,4608.205078,3972.307617,3892.307617,4290.256348,3986.153809,4197.948730,4140.000000,4065.128174,3983.076904,442.000000,4.000000,,,,0.000000,4.000000,4.000000,0.000000,4.000000,4.000000,4.000000,4.000000,4.000000,4.000000,1.000000,4.000000,4.000000,4.000000,2.000000,25.000000
1602278530.915057,91.000000,0.000000,3897.948730,4631.282227,4160.000000,4260.512695,4001.025635,4603.077148,3970.769287,3888.718018,4285.128418,3983.589844,4191.282227,4133.333496,4053.333252,3977.435791,243.000000,4.000000,,,,0.000000,4.000000,4.000000,0.000000,4.000000,4.000000,4.000000,4.000000,4.000000,4.000000,1.000000,4.000000,4.000000,4.000000,2.000000,25.000000
1602278530.922878,92.000000,0.000000,3900.000000,4623.077148,4163.589844,4251.282227,3994.358887,4598.974121,3969.230713,3889.230713,4289.230957,3982.051270,4192.307617,4133.846191,4049.230713,3980.512939,425.000000,4.000000,,,,0.000000,4.000000,4.000000,0.000000,4.000000,4.000000,4.000000,4.000000,4.000000,4.000000,1.000000,4.000000,4.000000,4.000000,2.000000,25.000000
1602278530.930599,93.000000,0.000000,3900.512939,4626.153809,4164.102539,4244.615234,3991.794922,4596.922852,3963.589844,3884.102539,4289.230957,3981.538574,4191.794922,4136.922852,4054.358887,3984.615479,357.000000,4.000000,,,,0.000000,4.000000,4.000000,0.000000,4.000000,4.000000,4.000000,4.000000,4.000000,4.000000,1.000000,4.000000,4.000000,4.000000,2.000000,25.000000
1602278530.938521,94.000000,0.000000,3902.051270,4622.563965,4160.512695,4246.153809,4001.025635,4597.948730,3961.025635,3876.410156,4291.282227,3982.051270,4195.384766,4137.948730,4060.000000,3984.102539,442.000000,4.000000,,,,0.000000,4.000000,4.000000,0.000000,4.000000,4.000000,4.000000,4.000000,4.000000,4.000000,1.000000,4.000000,4.000000,4.000000,2.000000,25.000000
1602278530.946343,95.000000,0.000000,3903.589844,4623.077148,4158.974121,4256.922852,4007.179443,4598.461426,3968.205078,3883.076904,4296.410156,3984.615479,4202.563965,4142.051270,4068.205078,3983.076904,243.000000,4.000000,,,,0.000000,4.000000,4.000000,0.000000,4.000000,4.000000,4.000000,4.000000,4.000000,4.000000,1.000000,4.000000,4.000000,4.000000,2.000000,25.000000
1602278530.954264,96.000000,0.000000,3896.923096,4629.743652,4160.512695,4260.000000,3996.410156,4600.000000,3969.230713,3893.846191,4296.410156,3987.692383,4202.051270,4146.153809,4071.794922,3981.538574,425.000000,4.000000,,,,0.000000,4.000000,4.000000,0.000000,4.000000,4.000000,4.000000,4.000000,4.000000,4.000000,1.000000,4.000000,4.000000,4.000000,2.000000,25.000000
1602278530.962086,97.000000,0.000000,3888.718018,4623.077148,4160.000000,4251.794922,3991.794922,4599.487305,3963.589844,3887.179443,4294.871582,3987.692383,4201.025879,4141.538574,4067.692383,3980.000000,357.000000,4.000000,,,,0.000000,4.000000,4.000000,0.000000,4.000000,4.000000,4.000000,4.000000,4.000000,4.000000,1.000000,4.000000,4.000000,4.000000,2.000000,25.000000
1602278530.970007,98.000000,0.000000,3889.230713,4613.333496,4158.461426,4244.102539,4004.102539,4602.051270,3962.051270,3878.974365,4295.384766,3987.692383,4200.000000,4135.384766,4061.025635,3980.000000,442.000000,4.000000,,,,0.000000,4.000000,4.000000,0.000000,4.000000,4.000000,4.000000,4.000000,4.000000,4.000000,1.000000,4.000000,4.000000,4.000000,2.000000,25.000000
1602278530.977829,99.000000,0.000000,3890.769287,4614.358887,4161.538574,4237.948730,4006.666748,4603.077148,3964.615479,3882.564209,4289.743652,3984.615479,4195.384766,4134.871582,4050.256348,3977.948730,243.000000,4.000000,,,,0.000000,4.000000,4.000000,0.000000,4.000000,4.000000,4.000000,4.000000,4.000000,4.000000,1.000000,4.000000,4.000000,4.000000,2.000000,25.000000
1602278530.985750,100.000000,0.000000,3885.641113,4615.384766,4161.025879,4240.512695,3989.230713,4600.512695,3967.179443,3881.538574,4283.589844,3980.512939,4194.871582,4134.358887,4048.205078,3974.358887,425.000000,4.000000,,,,0.000000,4.000000,4.000000,0.000000,4.000000,4.000000,4.000000,4.000000,4.000000,4.000000,1.000000,4.000000,4.000000,4.000000,2.000000,25.000000
1602278530.993572,101.000000,0.000000,3881.025635,4611.282227,4158.461426,4249.743652,3985.128174,4603.077148,3969.743652,3878.974365,4286.666504,3982.564209,4194.358887,4135.384766,4056.923096,3976.923096,357.000000,4.000000,,,,0.000000,4.000000,4.000000,0.000000,4.000000,4.000000,4.000000,4.000000,4.000000,4.000000,1.000000,4.000000,4.000000,4.000000,2.000000,25.000000
1602278531.001493,102.000000,0.000000,3885.128174,4615.384766,4158.461426,4251.794922,4005.128174,4601.538574,3968.205078,3886.666748,4292.307617,3983.589844,4195.897461,4140.512695,4055.897461,3981.538574,442.000000,4.000000,,,,0.000000,4.000000,4.000000,0.000000,4.000000,4.000000,4.000000,4.000000,4.000000,4.000000,1.000000,4.000000,4.000000,4.000000,2.000000,25.000000
1602278531.009314,103.000000,0.000000,3893.846191,4619.487305,4163.077148,4249.230957,4003.076904,4591.794922,3959.487061,3885.128174,4289.743652,3978.461426,4199.487305,4143.077148,4049.230713,3980.000000,243.000000,4.000000,,,,0.000000,4.000000,4.000000,0.000000,4.000000,4.000000,4.000000,4.000000,4.000000,4.000000,1.000000,4.000000,4.000000,4.000000,2.000000,25.000000
1602278531.017235,104.000000,0.000000,3896.410156,4621.025879,4161.538574,4253.846191,3986.666748,4590.256348,3954.871826,3875.384521,4286.153809,3978.461426,4198.974121,4142.051270,4061.538574,3975.384521,425.000000,4.000000,,,,0.000000,4.000000,4.000000,0.000000,4.000000,4.000000,4.000000,4.000000,4.000000,4.000000,1.000000,4.000000,4.000000,4.000000,2.000000,25.000000
1602278531.025057,105.000000,0.000000,3893.333252,4624.615234,4161.538574,4253.333496,3996.923096,4590.769043,3957.948730,3875.384521,4286.153809,3982.564209,4200.000000,4144.102539,4075.384521,3977.948730,357.000000,4.000000,,,,0.000000,4.000000,4.000000,0.000000,4.000000,4.000000,4.000000,4.000000,4.000000,4.000000,1.000000,4.000000,4.000000,4.000000,2.000000,25.000000
1602278531.032778,106.000000,0.000000,3893.846191,4617.436035,4163.589844,4245.641113,4005.641113,4588.717773,3955.897461,3876.410156,4287.179688,3983.076904,4204.615234,4146.666504,4067.692383,3982.051270,442.000000,4.000000,,,,0.000000,4.000000,4.000000,0.000000,4.000000,4.000000,4.000000,4.000000,4.000000,4.000000,1.000000,4.000000,4.000000,4.000000,2.000000,25.000000
1602278531.040599,107.000000,0.000000,3895.384521,4606.153809,4161.538574,4248.205078,3994.871826,4594.358887,3956.923096,3873.846191,4286.666504,3980.000000,4199.487305,4143.589844,4057.948730,3979.487061,243.000000,4.000000,,,,0.000000,4.000000,4.000000,0.000000,4.000000,4.000000,4.000000,4.000000,4.000000,4.000000,1.000000,4.000000,4.000000,4.000000,2.000000,25.000000
1602278531.048321,108.000000,0.000000,3888.205078,4611.794922,4156.922852,4252.307617,3995.384521,4604.102539,3961.538574,3877.435791,4288.717773,3981.025635,4192.820313,4138.461426,4058.974365,3974.871826,425.000000,4.000000,,,,0.000000,4.000000,4.000000,0.000000,4.000000,4.000000,4.000000,4.000000,4.000000,4.000000,1.000000,4.000000,4.000000,4.000000,2.000000,25.000000
1602278531.056142,109.000000,0.000000,3884.102539,4623.077148,4160.000000,4248.717773,4000.512939,4601.025879,3962.564209,3877.435791,4288.205078,3979.487061,4190.769043,4134.358887,4054.871826,3972.307617,357.000000,4.000000,,,,0.000000,4.000000,4.000000,0.000000,4.000000,4.000000,4.000000,4.000000,4.000000,4.000000,1.000000,4.000000,4.000000,4.000000,2.000000,25.000000
1602278531.063864,110.000000,0.000000,3885.641113,4623.077148,4161.538574,4249.743652,3992.307617,4595.384766,3956.923096,3870.769287,4281.538574,3974.871826,4187.179688,4131.794922,4046.666748,3972.307617,442.000000,4.000000,,,,0.000000,4.000000,4.000000,0.000000,4.000000,4.000000,4.000000,4.000000,4.000000,4.000000,1.000000,4.000000,4.000000,4.000000,2.000000,25.000000
1602278531.071685,111.000000,0.000000,3888.205078,4617.948730,4158.461426,4256.410156,3991.281982,4592.820313,3950.256348,3873.846191,4284.102539,3977.948730,4192.820313,4140.000000,4056.410156,3980.512939,243.000000,4.000000,,,,0.000000,4.000000,4.000000,0.000000,4.000000,4.000000,4.000000,4.000000,4.000000,4.000000,1.000000,4.000000,4.000000,4.000000,2.000000,25.000000
1602278531.079406,112.000000,0.000000,3889.743652,4618.974121,4158.461426,4253.333496,3997.435791,4594.358887,3951.794922,3883.076904,4293.846191,3982.564209,4205.128418,4148.717773,4070.256348,3985.641113,425.000000,4.000000,,,,0.000000,4.000000,4.000000,0.000000,4.000000,4.000000,4.000000,4.000000,4.000000,4.000000,1.000000,4.000000,4.000000,4.000000,2.000000,25.000000
1602278531.087227,113.000000,0.000000,3885.641113,4626.666504,4160.512695,4249.743652,3998.974365,4597.436035,3959.487061,3881.025635,4295.384766,3982.564209,4202.563965,4141.025879,4061.538574,3978.461426,357.000000,4.000000,,,,0.000000,4.000000,4.000000,0.000000,4.000000,4.000000,4.000000,4.000000,4.000000,4.000000,1.000000,4.000000,4.000000,4.000000,2.000000,25.000000
1602278531.094948,114.000000,0.000000,3884.102539,4623.589844,4162.051270,4252.307617,4000.000000,4594.358887,3961.025635,3873.846191,4289.743652,3983.076904,4189.230957,4130.769043,4048.205078,3974.358887,442.000000,4.000000,,,,0.000000,4.000000,4.000000,0.000000,4.000000,4.000000,4.000000,4.000000,4.000000,4.000000,1.000000,4.000000,4.000000,4.000000,2.000000,25.000000
1602278531.102769,115.000000,0.000000,3886.153809,4606.153809,4162.051270,4250.256348,3996.923096,4590.769043,3955.384521,3871.794922,4288.205078,3979.487061,4182.051270,4128.205078,4048.718018,3973.333252,243.000000,4.000000,,,,0.000000,4.000000,4.000000,0.000000,4.000000,4.000000,4.000000,4.000000,4.000000,4.000000,1.000000,4.000000,4.000000,4.000000,2.000000,25.000000
1602278531.110491,116.000000,0.000000,3885.641113,4608.717773,4160.000000,4249.230957,3996.923096,4593.333496,3956.923096,3872.820557,4290.769043,3975.384521,4188.717773,4128.717773,4057.435791,3972.820557,425.000000,4.000000,,,,0.000000,4.000000,4.000000,0.000000,4.000000,4.000000,4.000000,4.000000,4.000000,4.000000,1.000000,4.000000,4.000000,4.000000,2.000000,25.000000
1602278531.118412,117.000000,0.000000,3889.230713,4632.307617,4158.461426,4250.769043,4010.256348,4594.358887,3961.025635,3876.410156,4293.333496,3978.461426,4200.512695,4136.410156,4067.692383,3977.948730,357.000000,4.000000,,,,0.000000,4.000000,4.000000,0.000000,4.000000,4.000000,4.000000,4.000000,4.000000,4.000000,1.000000,4.000000,4.000000,4.000000,2.000000,25.000000
1602278531.126234,118.000000,0.000000,3897.948730,4638.461426,4162.051270,4248.205078,4013.333252,4595.384766,3954.358887,3878.974365,4289.743652,3977.948730,4201.025879,4147.179688,4066.666748,3983.589844,442.000000,4.000000,,,,0.000000,4.000000,4.000000,0.000000,4.000000,4.000000,4.000000,4.000000,4.000000,4.000000,1.000000,4.000000,4.000000,4.000000,2.000000,25.000000
1602278531.134155,119.000000,0.000000,3895.897461,4629.230957,4160.512695,4253.333496,4004.102539,4599.487305,3951.794922,3875.897461,4286.153809,3972.820557,4199.487305,4144.615234,4061.538574,3978.974365,243.000000,4.000000,,,,0.000000,4.000000,4.000000,0.000000,4.000000,4.000000,4.000000,4.000000,4.000000,4.000000,1.000000,4.000000,4.000000,4.000000,2.000000,25.000000
1602278531.141977,120.000000,0.000000,3893.846191,4623.589844,4157.948730,4263.077148,3998.461426,4599.487305,3958.461426,3876.410156,4289.230957,3977.435791,4211.282227,4142.563965,4071.794922,3980.512939,425.000000,4.000000,,,,0.000000,4.000000,4.000000,0.000000,4.000000,4.000000,4.000000,4.000000,4.000000,4.000000,1.000000,4.000000,4.000000,4.000000,2.000000,25.000000
1602278531.149898,121.000000,0.000000,3900.000000,4616.922852,4157.948730,4263.589844,4001.025635,4591.282227,3958.461426,3879.487061,4292.307617,3981.538574,4218.461426,4150.769043,4082.051270,3986.666748,357.000000,4.000000,,,,0.000000,4.000000,4.000000,0.000000,4.000000,4.000000,4.000000,4.000000,4.000000,4.000000,1.000000,4.000000,4.000000,4.000000,2.000000,25.000000
1602278531.157720,122.000000,0.000000,3900.512939,4613.846191,4161.025879,4261.025879,4005.641113,4586.153809,3954.358887,3881.025635,4291.282227,3977.435791,4218.461426,4154.358887,4082.564209,3989.230713,442.000000,4.000000,,,,0.000000,4.000000,4.000000,0.000000,4.000000,4.000000,4.000000,4.000000,4.000000,4.000000,1.000000,4.000000,4.000000,4.000000,2.000000,25.000000
1602278531.165641,123.000000,0.000000,3896.410156,4621.538574,4161.538574,4263.589844,4002.564209,4592.820313,3965.128174,3887.179443,4297.436035,3981.025635,4222.563965,4154.358887,4084.102539,3989.230713,243.000000,4.000000,,,,0.000000,4.000000,4.000000,0.000000,4.000000,4.000000,4.000000,4.000000,4.000000,4.000000,1.000000,4.000000,4.000000,4.000000,2.000000,25.000000
1602278531.173463,124.000000,0.000000,3901.025635,4637.436035,4162.563965,4266.666504,4007.179443,4606.153809,3979.487061,3898.974365,4310.256348,3987.179443,4229.743652,4160.512695,4087.692383,3991.281982,425.000000,4.000000,,,,0.000000,4.000000,4.000000,0.000000,4.000000,4.000000,4.000000,4.000000,4.000000,4.000000,1.000000,4.000000,4.000000,4.000000,2.000000,25.000000
1602278531.181384,125.000000,0.000000,3902.564209,4648.717773,4160.000000,4265.641113,4024.102539,4612.820313,3978.974365,3902.564209,4314.871582,3985.641113,4234.358887,4159.487305,4089.230713,3988.718018,357.000000,4.000000,,,,0.000000,4.000000,4.000000,0.000000,4.000000,4.000000,4.000000,4.000000,4.000000,4.000000,1.000000,4.000000,4.000000,4.000000,2.000000,25.000000
1602278531.189205,126.000000,0.000000,3895.897461,4643.077148,4158.461426,4260.000000,4017.948730,4606.666504,3967.179443,3891.794922,4307.179688,3982.051270,4230.256348,4147.692383,4089.230713,3983.076904,442.000000,4.000000,,,,0.000000,4.000000,4.000000,0.000000,4.000000,4.000000,4.000000,4.000000,4.000000,4.000000,1.000000,4.000000,4.000000,4.000000,2.000000,25.000000
1602278531.197126,127.000000,0.000000,3898.974365,4634.358887,4161.538574,4260.000000,3998.461426,4597.948730,3956.410156,3881.538574,4298.461426,3986.153809,4223.077148,4144.615234,4087.179443,3982.051270,243.000000,4.000000,,,,0.000000,4.000000,4.000000,0.000000,4.000000,4.000000,4.000000,4.000000,4.000000,4.000000,1.000000,4.000000,4.000000,4.000000,2.000000,25.000000
1602278531.204948,128.000000,0.000000,3902.564209,4637.436035,4162.051270,4265.641113,4005.641113,4596.410156,3951.794922,3880.000000,4292.307617,3987.692383,4220.512695,4148.205078,4085.128174,3983.076904,425.000000,4.000000,,,,0.000000,4.000000,4.000000,0.000000,4.000000,4.000000,4.000000,4.000000,4.000000,4.000000,1.000000,4.000000,4.000000,4.000000,2.000000,25.000000
1602278531.212669,0.000000,0.000000,3892.307617,4637.948730,4158.461426,4257.948730,4013.846191,4595.897461,3955.384521,3869.743652,4278.974121,3977.435791,4213.846191,4140.000000,4076.410156,3981.025635,0.000000,4.000000,,,,0.000000,4.000000,4.000000,0.000000,4.000000,4.000000,4.000000,4.000000,4.000000,4.000000,1.000000,4.000000,4.000000,4.000000,2.000000,25.000000
1602278531.220491,1.000000,0.000000,3883.589844,4627.692383,4158.974121,4243.077148,4001.025635,4595.384766,3956.923096,3858.461426,4266.666504,3973.846191,4206.153809,4131.282227,4060.000000,3977.435791,427.000000,4.000000,,,,0.000000,4.000000,4.000000,0.000000,4.000000,4.000000,4.000000,4.000000,4.000000,4.000000,1.000000,4.000000,4.000000,4.000000,2.000000,25.000000
1602278531.228212,2.000000,0.000000,3892.820557,4624.102539,4162.051270,4245.128418,3996.923096,4597.436035,3960.512939,3869.230713,4273.846191,3980.512939,4216.922852,4138.461426,4063.076904,3978.974365,389.000000,4.000000,,,,0.000000,4.000000,4.000000,0.000000,4.000000,4.000000,4.000000,4.000000,4.000000,4.000000,1.000000,4.000000,4.000000,4.000000,2.000000,25.000000
1602278531.236033,3.000000,0.000000,3901.025635,4634.871582,4158.974121,4258.461426,4005.128174,4600.000000,3965.128174,3882.564209,4286.153809,3985.641113,4232.820313,4149.743652,4084.102539,3981.538574,445.000000,4.000000,,,,0.000000,4.000000,4.000000,0.000000,4.000000,4.000000,4.000000,4.000000,4.000000,4.000000,1.000000,4.000000,4.000000,4.000000,2.000000,25.000000
1602278531.243755,4.000000,0.000000,3900.000000,4646.153809,4157.948730,4256.922852,4007.179443,4597.948730,3963.076904,3882.564209,4285.128418,3986.153809,4236.922852,4157.948730,4093.846191,3986.153809,481.000000,4.000000,,,,0.000000,4.000000,4.000000,0.000000,4.000000,4.000000,4.000000,4.000000,4.000000,4.000000,1.000000,4.000000,4.000000,4.000000,2.000000,25.000000
1602278531.251576,5.000000,0.000000,3902.051270,4645.641113,4161.025879,4249.743652,4004.102539,4598.461426,3961.025635,3888.718018,4288.717773,3986.153809,4242.051270,4162.051270,4097.948730,3990.256348,420.000000,4.000000,,,,0.000000,4.000000,4.000000,0.000000,4.000000,4.000000,4.000000,4.000000,4.000000,4.000000,1.000000,4.000000,4.000000,4.000000,2.000000,25.000000
1602278531.259297,6.000000,0.000000,3906.666748,4642.051270,4164.102539,4251.282227,4007.692383,4602.563965,3964.615479,3898.974365,4301.025879,3987.692383,4243.589844,4164.102539,4109.230957,3992.820557,469.000000,4.000000,,,,0.000000,4.000000,4.000000,0.000000,4.000000,4.000000,4.000000,4.000000,4.000000,4.000000,1.000000,4.000000,4.000000,4.000000,2.000000,25.000000
1602278531.267118,7.000000,0.000000,3908.718018,4640.000000,4162.051270,4250.769043,4014.871826,4605.128418,3969.743652,3896.410156,4307.692383,3988.718018,4237.948730,4163.589844,4111.794922,3993.333252,393.000000,4.000000,,,,0.000000,4.000000,4.000000,0.000000,4.000000,4.000000,4.000000,4.000000,4.000000,4.000000,1.000000,4.000000,4.000000,4.000000,2.000000,25.000000
1602278531.274839,8.000000,0.000000,3904.102539,4631.794922,4162.051270,4247.179688,4008.205078,4603.077148,3965.641113,3885.641113,4302.051270,3989.230713,4230.769043,4157.948730,4097.436035,3988.718018,416.000000,4.000000,,,,0.000000,4.000000,4.000000,0.000000,4.000000,4.000000,4.000000,4.000000,4.000000,4.000000,1.000000,4.000000,4.000000,4.000000,2.000000,25.000000
1602278531.282661,9.000000,0.000000,3899.487061,4625.641113,4159.487305,4247.692383,3992.820557,4597.436035,3955.384521,3876.923096,4293.333496,3986.666748,4226.666504,4148.717773,4086.666748,3983.076904,49.000000,4.000000,,,,0.000000,4.000000,4.000000,0.000000,4.000000,4.000000,4.000000,4.000000,4.000000,4.000000,1.000000,4.000000,4.000000,4.000000,2.000000,25.000000
1602278531.290382,10.000000,0.000000,3902.051270,4625.128418,4158.461426,4248.205078,3991.794922,4596.410156,3952.307617,3874.358887,4286.666504,3986.153809,4223.589844,4146.153809,4084.102539,3984.102539,442.000000,4.000000,,,,0.000000,4.000000,4.000000,0.000000,4.000000,4.000000,4.000000,4.000000,4.000000,4.000000,1.000000,4.000000,4.000000,4.000000,2.000000,25.000000
1602278531.298303,11.000000,0.000000,3905.128174,4622.051270,4158.461426,4246.666504,3999.487061,4598.461426,3961.538574,3875.897461,4280.000000,3987.692383,4215.384766,4143.077148,4073.846191,3980.000000,243.000000,4.000000,,,,0.000000,4.000000,4.000000,0.000000,4.000000,4.000000,4.000000,4.000000,4.000000,4.000000,1.000000,4.000000,4.000000,4.000000,2.000000,25.000000
1602278531.306125,12.000000,0.000000,3903.589844,4630.769043,4160.000000,4252.307617,4002.564209,4599.487305,3966.153809,3878.461426,4281.025879,3985.641113,4203.589844,4132.820313,4066.153809,3974.358887,425.000000,4.000000,,,,0.000000,4.000000,4.000000,0.000000,4.000000,4.000000,4.000000,4.000000,4.000000,4.000000,1.000000,4.000000,4.000000,4.000000,2.000000,25.000000
1602278531.314046,13.000000,0.000000,3901.538574,4646.153809,4160.000000,4251.282227,4004.615479,4604.615234,3963.589844,3878.461426,4289.743652,3981.025635,4202.051270,4130.769043,4068.205078,3977.435791,357.000000,4.000000,,,,0.000000,4.000000,4.000000,0.000000,4.000000,4.000000,4.000000,4.000000,4.000000,4.000000,1.000000,4.000000,4.000000,4.000000,2.000000,25.000000
1602278531.321868,14.000000,0.000000,3904.615479,4643.077148,4161.538574,4247.179688,4006.153809,4608.717773,3962.564209,3877.948730,4298.974121,3983.076904,4210.769043,4141.538574,4070.256348,3985.128174,442.000000,4.000000,,,,0.000000,4.000000,4.000000,0.000000,4.000000,4.000000,4.000000,4.000000,4.000000,4.000000,1.000000,4.000000,4.000000,4.000000,2.000000,25.000000
1602278531.329789,15.000000,0.000000,3914.358887,4637.948730,4163.077148,4259.487305,4018.974365,4611.794922,3965.641113,3887.179443,4307.179688,3989.230713,4222.563965,4154.871582,4078.461426,3990.769287,243.000000,4.000000,,,,0.000000,4.000000,4.000000,0.000000,4.000000,4.000000,4.000000,4.000000,4.000000,4.000000,1.000000,4.000000,4.000000,4.000000,2.000000,25.000000
1602278531.337611,16.000000,0.000000,3917.948730,4648.205078,4161.025879,4270.256348,4032.820557,4611.794922,3967.692383,3900.000000,4312.307617,3989.743652,4231.282227,4158.461426,4085.641113,3989.230713,0.000000,4.000000,,,,0.000000,4.000000,4.000000,0.000000,4.000000,4.000000,4.000000,4.000000,4.000000,4.000000,1.000000,4.000000,4.000000,4.000000,2.000000,25.000000
1602278531.345532,17.000000,0.000000,3908.718018,4646.153809,4159.487305,4257.436035,4016.410156,4602.051270,3962.564209,3898.461426,4302.051270,3987.692383,4223.589844,4155.897461,4073.333252,3982.051270,0.000000,4.000000,,,,0.000000,4.000000,4.000000,0.000000,4.000000,4.000000,4.000000,4.000000,4.000000,4.000000,1.000000,4.000000,4.000000,4.000000,2.000000,25.000000
1602278531.353354,18.000000,0.000000,3900.000000,4630.769043,4157.948730,4243.077148,3991.281982,4593.333496,3957.435791,3891.281982,4288.717773,3988.205078,4213.333496,4156.922852,4069.743652,3980.512939,0.000000,4.000000,,,,0.000000,4.000000,4.000000,0.000000,4.000000,4.000000,4.000000,4.000000,4.000000,4.000000,1.000000,4.000000,4.000000,4.000000,2.000000,25.000000
1602278531.361275,19.000000,0.000000,3901.025635,4631.282227,4161.025879,4248.205078,3993.333252,4601.025879,3964.615479,3896.410156,4292.307617,3988.718018,4223.589844,4161.025879,4089.230713,3989.743652,0.000000,4.000000,,,,0.000000,4.000000,4.000000,0.000000,4.000000,4.000000,4.000000,4.000000,4.000000,4.000000,1.000000,4.000000,4.000000,4.000000,2.000000,25.000000
1602278531.369097,20.000000,0.000000,3901.538574,4638.974121,4162.563965,4255.384766,4004.615479,4610.769043,3971.281982,3897.948730,4300.000000,3987.179443,4235.384766,4161.538574,4096.922852,3991.794922,0.000000,4.000000,,,,0.000000,4.000000,4.000000,0.000000,4.000000,4.000000,4.000000,4.000000,4.000000,4.000000,1.000000,4.000000,4.000000,4.000000,2.000000,25.000000
1602278531.377018,21.000000,0.000000,3898.461426,4636.410156,4161.025879,4249.230957,4001.025635,4605.641113,3964.615479,3886.153809,4298.974121,3987.692383,4225.641113,4153.333496,4083.076904,3985.641113,0.000000,4.000000,,,,0.000000,4.000000,4.000000,0.000000,4.000000,4.000000,4.000000,4.000000,4.000000,4.000000,1.000000,4.000000,4.000000,4.000000,2.000000,25.000000
1602278531.384839,22.000000,0.000000,3901.538574,4632.307617,4161.025879,4245.128418,4000.512939,4599.487305,3962.051270,3884.615479,4298.974121,3988.205078,4214.358887,4146.666504,4083.589844,3983.076904,0.000000,4.000000,,,,0.000000,4.000000,4.000000,0.000000,4.000000,4.000000,4.000000,4.000000,4.000000,4.000000,1.000000,4.000000,4.000000,4.000000,2.000000,25.000000
1602278531.392561,23.000000,0.000000,3903.076904,4626.666504,4162.051270,4249.230957,4007.692383,4603.589844,3967.179443,3889.743652,4300.512695,3987.179443,4217.948730,4150.256348,4094.871826,3986.666748,0.000000,4.000000,,,,0.000000,4.000000,4.000000,0.000000,4.000000,4.000000,4.000000,4.000000,4.000000,4.000000,1.000000,4.000000,4.000000,4.000000,2.000000,25.000000
1602278531.400382,24.000000,0.000000,3894.358887,4621.025879,4157.948730,4250.256348,4008.718018,4605.641113,3968.205078,3888.205078,4301.538574,3987.692383,4224.102539,4152.820313,4085.128174,3987.692383,0.000000,4.000000,,,,0.000000,4.000000,4.000000,0.000000,4.000000,4.000000,4.000000,4.000000,4.000000,4.000000,1.000000,4.000000,4.000000,4.000000,2.000000,25.000000
1602278531.408104,25.000000,0.000000,3893.333252,4630.769043,4158.974121,4249.230957,4006.666748,4603.589844,3968.718018,3888.205078,4306.666504,3990.769287,4222.563965,4149.743652,4071.281982,3988.205078,0.000000,4.000000,,,,0.000000,4.000000,4.000000,0.000000,4.000000,4.000000,4.000000,4.000000,4.000000,4.000000,1.000000,4.000000,4.000000,4.000000,2.000000,25.000000
