title:your record name, start timestamp:1602278868.330603, stop timestamp:1602278898.586978, headset type:EPOC, headset serial:78841597, headset firmware:1e00, subject name:alzaabi.su, channels:38, sampling rate:128, samples:3870      , version:2.0
Timestamp,EEG.Counter,EEG.Interpolated,EEG.AF3,EEG.F7,EEG.F3,EEG.FC5,EEG.T7,EEG.P7,EEG.O1,EEG.O2,EEG.P8,EEG.T8,EEG.FC6,EEG.F4,EEG.F8,EEG.AF4,EEG.RawCq,EEG.Battery,MarkerIndex,MarkerType,MarkerValueInt,EEG.MarkerHardware,CQ.AF3,CQ.F7,CQ.F3,CQ.FC5,CQ.T7,CQ.P7,CQ.O1,CQ.O2,CQ.P8,CQ.T8,CQ.FC6,CQ.F4,CQ.F8,CQ.AF4,CQ.Overall
1602278868.330603,23.000000,0.000000,3914.358887,4587.179688,4161.538574,4244.102539,3098.974365,4616.410156,3983.076904,3883.076904,4328.205078,3966.666748,4199.487305,4152.307617,3953.333252,3986.153809,0.000000,4.000000,,,,0.000000,4.000000,4.000000,0.000000,4.000000,4.000000,4.000000,4.000000,4.000000,4.000000,1.000000,4.000000,4.000000,4.000000,2.000000,25.000000
1602278868.338329,24.000000,0.000000,3911.794922,4586.153809,4167.692383,4249.743652,3096.923096,4621.538574,3991.794922,3884.615479,4330.256348,3965.128174,4201.538574,4152.820313,3943.076904,3983.076904,0.000000,4.000000,,,,0.000000,4.000000,4.000000,0.000000,4.000000,4.000000,4.000000,4.000000,4.000000,4.000000,1.000000,4.000000,4.000000,4.000000,2.000000,25.000000
1602278868.346154,25.000000,0.000000,3907.692383,4588.205078,4167.692383,4250.256348,3080.512939,4620.000000,3993.333252,3887.692383,4328.717773,3963.589844,4198.461426,4153.333496,3945.128174,3980.512939,0.000000,4.000000,,,,0.000000,4.000000,4.000000,0.000000,4.000000,4.000000,4.000000,4.000000,4.000000,4.000000,1.000000,4.000000,4.000000,4.000000,2.000000,25.000000
1602278868.353879,26.000000,0.000000,3908.205078,4587.179688,4165.641113,4238.974121,3084.615479,4616.410156,3997.435791,3883.076904,4328.717773,3966.666748,4193.333496,4153.333496,3946.153809,3981.025635,0.000000,4.000000,,,,0.000000,4.000000,4.000000,0.000000,4.000000,4.000000,4.000000,4.000000,4.000000,4.000000,1.000000,4.000000,4.000000,4.000000,2.000000,25.000000
1602278868.361704,27.000000,0.000000,3907.692383,4582.563965,4167.179688,4244.615234,3101.025635,4627.179688,4002.051270,3879.487061,4327.179688,3968.205078,4194.871582,4150.256348,3939.487061,3981.025635,0.000000,4.000000,,,,0.000000,4.000000,4.000000,0.000000,4.000000,4.000000,4.000000,4.000000,4.000000,4.000000,1.000000,4.000000,4.000000,4.000000,2.000000,25.000000
1602278868.369429,28.000000,0.000000,3910.256348,4577.436035,4167.692383,4251.282227,3106.666748,4629.230957,3995.384521,3880.000000,4321.538574,3962.564209,4192.307617,4143.589844,3940.000000,3982.051270,0.000000,4.000000,,,,0.000000,4.000000,4.000000,0.000000,4.000000,4.000000,4.000000,4.000000,4.000000,4.000000,1.000000,4.000000,4.000000,4.000000,2.000000,25.000000
1602278868.377254,29.000000,0.000000,3920.000000,4576.922852,4166.153809,4242.563965,3108.718018,4616.410156,3990.769287,3876.923096,4318.974121,3961.538574,4191.794922,4144.102539,3943.076904,3984.102539,0.000000,4.000000,,,,0.000000,4.000000,4.000000,0.000000,4.000000,4.000000,4.000000,4.000000,4.000000,4.000000,1.000000,4.000000,4.000000,4.000000,2.000000,25.000000
1602278868.384980,30.000000,0.000000,3927.692383,4587.179688,4169.230957,4243.589844,3114.871826,4612.820313,3992.820557,3875.897461,4318.974121,3968.718018,4201.025879,4152.820313,3942.564209,3987.692383,0.000000,4.000000,,,,0.000000,4.000000,4.000000,0.000000,4.000000,4.000000,4.000000,4.000000,4.000000,4.000000,1.000000,4.000000,4.000000,4.000000,2.000000,25.000000
1602278868.392805,31.000000,0.000000,3926.153809,4596.410156,4168.205078,4256.922852,3123.589844,4623.589844,3992.307617,3882.051270,4324.615234,3971.794922,4206.666504,4158.461426,3950.256348,3990.769287,0.000000,4.000000,,,,0.000000,4.000000,4.000000,0.000000,4.000000,4.000000,4.000000,4.000000,4.000000,4.000000,1.000000,4.000000,4.000000,4.000000,2.000000,25.000000
1602278868.400529,32.000000,0.000000,3925.641113,4598.974121,4164.615234,4261.025879,3123.589844,4633.333496,3992.307617,3886.153809,4336.922852,3968.205078,4204.615234,4158.974121,3961.538574,3991.281982,0.000000,4.000000,,,,0.000000,4.000000,4.000000,0.000000,4.000000,4.000000,4.000000,4.000000,4.000000,4.000000,1.000000,4.000000,4.000000,4.000000,2.000000,25.000000
1602278868.408354,33.000000,0.000000,3929.230713,4603.589844,4162.563965,4256.410156,3125.641113,4634.871582,3999.487061,3886.153809,4337.948730,3969.230713,4203.589844,4160.000000,3960.512939,3988.718018,0.000000,4.000000,,,,0.000000,4.000000,4.000000,0.000000,4.000000,4.000000,4.000000,4.000000,4.000000,4.000000,1.000000,4.000000,4.000000,4.000000,2.000000,25.000000
1602278868.416079,34.000000,0.000000,3930.769287,4605.641113,4165.128418,4251.282227,3133.333252,4628.717773,3999.487061,3880.000000,4322.563965,3969.743652,4204.102539,4162.051270,3952.820557,3991.794922,0.000000,4.000000,,,,0.000000,4.000000,4.000000,0.000000,4.000000,4.000000,4.000000,4.000000,4.000000,4.000000,1.000000,4.000000,4.000000,4.000000,2.000000,25.000000
1602278868.424005,35.000000,0.000000,3934.871826,4605.641113,4164.615234,4254.871582,3137.435791,4616.922852,3987.179443,3874.358887,4315.384766,3964.615479,4202.563965,4158.461426,3951.281982,3993.846191,0.000000,4.000000,,,,0.000000,4.000000,4.000000,0.000000,4.000000,4.000000,4.000000,4.000000,4.000000,4.000000,1.000000,4.000000,4.000000,4.000000,2.000000,25.000000
1602278868.431934,36.000000,0.000000,3936.923096,4604.615234,4168.205078,4262.563965,3140.512939,4613.846191,3984.102539,3873.846191,4317.948730,3963.589844,4198.461426,4152.307617,3954.871826,3989.743652,0.000000,4.000000,,,,0.000000,4.000000,4.000000,0.000000,4.000000,4.000000,4.000000,4.000000,4.000000,4.000000,1.000000,4.000000,4.000000,4.000000,2.000000,25.000000
1602278868.439764,37.000000,0.000000,3928.718018,4593.846191,4169.230957,4257.436035,3143.076904,4622.563965,3993.333252,3874.871826,4316.922852,3966.153809,4194.871582,4150.769043,3954.871826,3987.692383,0.000000,4.000000,,,,0.000000,4.000000,4.000000,0.000000,4.000000,4.000000,4.000000,4.000000,4.000000,4.000000,1.000000,4.000000,4.000000,4.000000,2.000000,25.000000
1602278868.447593,38.000000,0.000000,3920.000000,4580.000000,4166.153809,4247.692383,3144.102539,4621.538574,3994.871826,3875.897461,4315.897461,3964.102539,4197.436035,4151.794922,3946.666748,3984.615479,0.000000,4.000000,,,,0.000000,4.000000,4.000000,0.000000,4.000000,4.000000,4.000000,4.000000,4.000000,4.000000,1.000000,4.000000,4.000000,4.000000,2.000000,25.000000
1602278868.455519,39.000000,0.000000,3920.512939,4585.128418,4164.615234,4248.205078,3144.102539,4613.333496,3989.743652,3881.025635,4317.948730,3962.051270,4199.487305,4149.230957,3944.102539,3981.538574,0.000000,4.000000,,,,0.000000,4.000000,4.000000,0.000000,4.000000,4.000000,4.000000,4.000000,4.000000,4.000000,1.000000,4.000000,4.000000,4.000000,2.000000,25.000000
1602278868.463345,40.000000,0.000000,3926.153809,4603.077148,4166.153809,4253.333496,3150.769287,4621.025879,3994.358887,3888.205078,4325.641113,3968.205078,4200.000000,4151.282227,3945.641113,3988.718018,0.000000,4.000000,,,,0.000000,4.000000,4.000000,0.000000,4.000000,4.000000,4.000000,4.000000,4.000000,4.000000,1.000000,4.000000,4.000000,4.000000,2.000000,25.000000
1602278868.471271,41.000000,0.000000,3931.281982,4604.615234,4165.641113,4250.256348,3165.128174,4630.256348,3995.897461,3887.179443,4331.282227,3970.256348,4202.563965,4157.436035,3944.102539,3993.846191,0.000000,4.000000,,,,0.000000,4.000000,4.000000,0.000000,4.000000,4.000000,4.000000,4.000000,4.000000,4.000000,1.000000,4.000000,4.000000,4.000000,2.000000,25.000000
1602278868.479097,42.000000,0.000000,3930.256348,4593.846191,4164.102539,4246.666504,3170.256348,4620.512695,3982.051270,3879.487061,4327.179688,3964.102539,4198.461426,4151.794922,3947.692383,3987.179443,0.000000,4.000000,,,,0.000000,4.000000,4.000000,0.000000,4.000000,4.000000,4.000000,4.000000,4.000000,4.000000,1.000000,4.000000,4.000000,4.000000,2.000000,25.000000
1602278868.487023,43.000000,0.000000,3927.692383,4599.487305,4167.692383,4256.410156,3164.102539,4614.871582,3976.923096,3872.307617,4315.384766,3965.641113,4194.358887,4145.128418,3956.410156,3984.102539,0.000000,4.000000,,,,0.000000,4.000000,4.000000,0.000000,4.000000,4.000000,4.000000,4.000000,4.000000,4.000000,1.000000,4.000000,4.000000,4.000000,2.000000,25.000000
1602278868.494849,44.000000,0.000000,3925.128174,4611.794922,4167.692383,4266.666504,3167.179443,4628.717773,3988.718018,3875.384521,4313.333496,3971.281982,4198.461426,4147.692383,3954.358887,3986.666748,0.000000,4.000000,,,,0.000000,4.000000,4.000000,0.000000,4.000000,4.000000,4.000000,4.000000,4.000000,4.000000,1.000000,4.000000,4.000000,4.000000,2.000000,25.000000
1602278868.502575,45.000000,0.000000,3919.487061,4600.000000,4165.641113,4260.512695,3176.923096,4637.948730,3996.410156,3880.512939,4317.436035,3963.589844,4193.846191,4142.051270,3939.487061,3982.564209,0.000000,4.000000,,,,0.000000,4.000000,4.000000,0.000000,4.000000,4.000000,4.000000,4.000000,4.000000,4.000000,1.000000,4.000000,4.000000,4.000000,2.000000,25.000000
1602278868.510401,46.000000,0.000000,3915.384521,4588.717773,4165.641113,4252.820313,3173.333252,4630.769043,3997.948730,3876.410156,4310.256348,3958.461426,4180.000000,4127.179688,3934.358887,3975.384521,0.000000,4.000000,,,,0.000000,4.000000,4.000000,0.000000,4.000000,4.000000,4.000000,4.000000,4.000000,4.000000,1.000000,4.000000,4.000000,4.000000,2.000000,25.000000
1602278868.518127,47.000000,0.000000,3923.076904,4601.538574,4166.153809,4252.820313,3170.256348,4624.615234,3998.974365,3874.871826,4303.077148,3965.641113,4185.641113,4134.871582,3940.000000,3980.000000,0.000000,4.000000,,,,0.000000,4.000000,4.000000,0.000000,4.000000,4.000000,4.000000,4.000000,4.000000,4.000000,1.000000,4.000000,4.000000,4.000000,2.000000,25.000000
1602278868.525952,48.000000,0.000000,3934.358887,4606.666504,4164.102539,4257.436035,3182.564209,4630.256348,4003.076904,3885.641113,4314.871582,3968.205078,4200.512695,4154.871582,3947.179443,3989.743652,0.000000,4.000000,,,,0.000000,4.000000,4.000000,0.000000,4.000000,4.000000,4.000000,4.000000,4.000000,4.000000,1.000000,4.000000,4.000000,4.000000,2.000000,25.000000
1602278868.533677,49.000000,0.000000,3937.948730,4600.000000,4167.692383,4268.717773,3186.153809,4634.358887,4008.718018,3897.948730,4330.256348,3968.718018,4203.077148,4161.538574,3953.846191,3996.410156,0.000000,4.000000,,,,0.000000,4.000000,4.000000,0.000000,4.000000,4.000000,4.000000,4.000000,4.000000,4.000000,1.000000,4.000000,4.000000,4.000000,2.000000,25.000000
1602278868.541503,50.000000,0.000000,3936.923096,4603.589844,4170.256348,4272.820313,3181.538574,4625.641113,4006.666748,3896.923096,4331.282227,3971.794922,4206.666504,4161.025879,3962.051270,3996.923096,0.000000,4.000000,,,,0.000000,4.000000,4.000000,0.000000,4.000000,4.000000,4.000000,4.000000,4.000000,4.000000,1.000000,4.000000,4.000000,4.000000,2.000000,25.000000
1602278868.549228,51.000000,0.000000,3934.871826,4600.000000,4168.717773,4264.615234,3185.641113,4618.461426,3997.948730,3892.820557,4327.692383,3971.281982,4210.769043,4158.461426,3959.487061,3990.256348,0.000000,4.000000,,,,0.000000,4.000000,4.000000,0.000000,4.000000,4.000000,4.000000,4.000000,4.000000,4.000000,1.000000,4.000000,4.000000,4.000000,2.000000,25.000000
1602278868.557053,52.000000,0.000000,3929.743652,4591.282227,4165.641113,4261.025879,3190.769287,4627.179688,4005.641113,3896.923096,4328.205078,3967.179443,4204.102539,4151.282227,3950.256348,3984.102539,0.000000,4.000000,,,,0.000000,4.000000,4.000000,0.000000,4.000000,4.000000,4.000000,4.000000,4.000000,4.000000,1.000000,4.000000,4.000000,4.000000,2.000000,25.000000
1602278868.564778,53.000000,0.000000,3923.589844,4590.256348,4165.128418,4264.102539,3189.743652,4630.256348,4007.179443,3890.769287,4321.538574,3965.128174,4194.871582,4145.641113,3949.743652,3985.128174,0.000000,4.000000,,,,0.000000,4.000000,4.000000,0.000000,4.000000,4.000000,4.000000,4.000000,4.000000,4.000000,1.000000,4.000000,4.000000,4.000000,2.000000,25.000000
1602278868.572603,54.000000,0.000000,3925.641113,4590.256348,4164.615234,4269.743652,3199.487061,4616.922852,3989.743652,3883.076904,4317.436035,3967.179443,4201.025879,4150.769043,3957.435791,3986.153809,0.000000,4.000000,,,,0.000000,4.000000,4.000000,0.000000,4.000000,4.000000,4.000000,4.000000,4.000000,4.000000,1.000000,4.000000,4.000000,4.000000,2.000000,25.000000
1602278868.580328,55.000000,0.000000,3934.358887,4596.410156,4167.692383,4277.948730,3215.897461,4614.871582,3993.846191,3891.794922,4330.256348,3972.307617,4215.897461,4162.051270,3969.743652,3991.281982,0.000000,4.000000,,,,0.000000,4.000000,4.000000,0.000000,4.000000,4.000000,4.000000,4.000000,4.000000,4.000000,1.000000,4.000000,4.000000,4.000000,2.000000,25.000000
1602278868.588254,56.000000,0.000000,3934.358887,4601.025879,4167.692383,4275.897461,3214.358887,4629.743652,4010.769287,3891.281982,4330.769043,3972.820557,4213.846191,4162.051270,3968.718018,3995.384521,0.000000,4.000000,,,,0.000000,4.000000,4.000000,0.000000,4.000000,4.000000,4.000000,4.000000,4.000000,4.000000,1.000000,4.000000,4.000000,4.000000,2.000000,25.000000
1602278868.596081,57.000000,0.000000,3927.692383,4599.487305,4166.666504,4270.769043,3212.820557,4632.307617,4003.589844,3874.358887,4307.179688,3967.692383,4200.512695,4153.846191,3953.846191,3990.256348,0.000000,4.000000,,,,0.000000,4.000000,4.000000,0.000000,4.000000,4.000000,4.000000,4.000000,4.000000,4.000000,1.000000,4.000000,4.000000,4.000000,2.000000,25.000000
1602278868.604008,58.000000,0.000000,3927.179443,4602.051270,4167.179688,4276.410156,3227.179443,4620.512695,3987.179443,3874.871826,4304.615234,3967.692383,4200.000000,4150.769043,3952.307617,3986.666748,0.000000,4.000000,,,,0.000000,4.000000,4.000000,0.000000,4.000000,4.000000,4.000000,4.000000,4.000000,4.000000,1.000000,4.000000,4.000000,4.000000,2.000000,25.000000
1602278868.611835,59.000000,0.000000,3925.128174,4604.615234,4165.641113,4281.025879,3232.820557,4622.051270,3989.230713,3884.615479,4324.102539,3970.256348,4200.512695,4148.205078,3954.358887,3985.128174,0.000000,4.000000,,,,0.000000,4.000000,4.000000,0.000000,4.000000,4.000000,4.000000,4.000000,4.000000,4.000000,1.000000,4.000000,4.000000,4.000000,2.000000,25.000000
1602278868.619761,60.000000,0.000000,3915.897461,4601.538574,4165.641113,4274.358887,3228.205078,4633.333496,3992.307617,3874.871826,4320.512695,3965.641113,4185.641113,4137.436035,3940.512939,3976.923096,0.000000,4.000000,,,,0.000000,4.000000,4.000000,0.000000,4.000000,4.000000,4.000000,4.000000,4.000000,4.000000,1.000000,4.000000,4.000000,4.000000,2.000000,25.000000
1602278868.627587,61.000000,0.000000,3909.743652,4604.615234,4163.589844,4263.589844,3232.307617,4630.769043,3984.615479,3865.128174,4305.128418,3961.538574,4178.461426,4133.333496,3931.794922,3972.307617,0.000000,4.000000,,,,0.000000,4.000000,4.000000,0.000000,4.000000,4.000000,4.000000,4.000000,4.000000,4.000000,1.000000,4.000000,4.000000,4.000000,2.000000,25.000000
1602278868.635513,62.000000,0.000000,3913.333252,4607.179688,4164.615234,4264.102539,3237.435791,4621.538574,3986.666748,3875.384521,4310.256348,3964.615479,4188.717773,4140.512695,3942.051270,3982.564209,0.000000,4.000000,,,,0.000000,4.000000,4.000000,0.000000,4.000000,4.000000,4.000000,4.000000,4.000000,4.000000,1.000000,4.000000,4.000000,4.000000,2.000000,25.000000
1602278868.643340,63.000000,0.000000,3918.461426,4596.410156,4167.692383,4273.333496,3234.358887,4625.641113,4004.102539,3887.179443,4321.538574,3970.256348,4197.436035,4144.102539,3948.718018,3989.743652,0.000000,4.000000,,,,0.000000,4.000000,4.000000,0.000000,4.000000,4.000000,4.000000,4.000000,4.000000,4.000000,1.000000,4.000000,4.000000,4.000000,2.000000,25.000000
1602278868.651266,64.000000,0.000000,3922.051270,4595.897461,4166.153809,4274.358887,3234.358887,4628.717773,4005.128174,3885.128174,4322.563965,3971.794922,4202.563965,4145.641113,3949.230713,3987.692383,0.000000,4.000000,,,,0.000000,4.000000,4.000000,0.000000,4.000000,4.000000,4.000000,4.000000,4.000000,4.000000,1.000000,4.000000,4.000000,4.000000,2.000000,25.000000
1602278868.659092,65.000000,0.000000,3918.974365,4605.128418,4160.000000,4270.769043,3240.512939,4618.461426,3988.205078,3875.897461,4314.358887,3969.743652,4198.974121,4145.128418,3952.820557,3981.538574,430.000000,4.000000,,,,0.000000,4.000000,4.000000,0.000000,4.000000,4.000000,4.000000,4.000000,4.000000,4.000000,1.000000,4.000000,4.000000,4.000000,2.000000,25.000000
1602278868.667018,66.000000,0.000000,3910.769287,4598.461426,4164.615234,4269.230957,3251.281982,4611.794922,3984.102539,3874.871826,4311.794922,3967.692383,4188.205078,4140.512695,3949.743652,3977.435791,390.000000,4.000000,,,,0.000000,4.000000,4.000000,0.000000,4.000000,4.000000,4.000000,4.000000,4.000000,4.000000,1.000000,4.000000,4.000000,4.000000,2.000000,25.000000
1602278868.674844,67.000000,0.000000,3910.769287,4583.077148,4168.205078,4264.615234,3260.000000,4615.897461,3993.846191,3880.512939,4318.974121,3969.743652,4190.769043,4139.487305,3948.718018,3978.461426,448.000000,4.000000,,,,0.000000,4.000000,4.000000,0.000000,4.000000,4.000000,4.000000,4.000000,4.000000,4.000000,1.000000,4.000000,4.000000,4.000000,2.000000,25.000000
1602278868.682570,68.000000,0.000000,3918.974365,4583.589844,4167.179688,4264.102539,3256.410156,4628.717773,4001.538574,3887.179443,4323.077148,3973.846191,4205.641113,4147.692383,3960.000000,3985.128174,489.000000,4.000000,,,,0.000000,4.000000,4.000000,0.000000,4.000000,4.000000,4.000000,4.000000,4.000000,4.000000,1.000000,4.000000,4.000000,4.000000,2.000000,25.000000
1602278868.690396,69.000000,0.000000,3917.948730,4591.794922,4167.692383,4266.666504,3245.641113,4637.948730,4001.538574,3890.769287,4324.615234,3973.333252,4209.230957,4151.794922,3966.153809,3986.666748,413.000000,4.000000,,,,0.000000,4.000000,4.000000,0.000000,4.000000,4.000000,4.000000,4.000000,4.000000,4.000000,1.000000,4.000000,4.000000,4.000000,2.000000,25.000000
1602278868.698121,70.000000,0.000000,3908.718018,4587.179688,4168.205078,4257.948730,3254.871826,4627.179688,3985.641113,3886.153809,4326.666504,3970.769287,4197.948730,4143.077148,3953.333252,3982.051270,473.000000,4.000000,,,,0.000000,4.000000,4.000000,0.000000,4.000000,4.000000,4.000000,4.000000,4.000000,4.000000,1.000000,4.000000,4.000000,4.000000,2.000000,25.000000
1602278868.705946,71.000000,0.000000,3910.256348,4584.102539,4165.128418,4246.153809,3283.076904,4612.820313,3973.333252,3875.897461,4320.000000,3966.153809,4195.897461,4134.358887,3943.589844,3980.512939,393.000000,4.000000,,,,0.000000,4.000000,4.000000,0.000000,4.000000,4.000000,4.000000,4.000000,4.000000,4.000000,1.000000,4.000000,4.000000,4.000000,2.000000,25.000000
1602278868.713672,72.000000,0.000000,3918.974365,4594.358887,4163.589844,4249.743652,3284.615479,4620.000000,3986.153809,3868.205078,4306.153809,3965.641113,4205.128418,4137.436035,3950.256348,3983.076904,414.000000,4.000000,,,,0.000000,4.000000,4.000000,0.000000,4.000000,4.000000,4.000000,4.000000,4.000000,4.000000,1.000000,4.000000,4.000000,4.000000,2.000000,25.000000
1602278868.721497,73.000000,0.000000,3918.461426,4602.051270,4162.051270,4252.820313,3269.743652,4630.769043,3998.461426,3864.102539,4301.538574,3972.820557,4207.692383,4142.051270,3949.230713,3982.051270,60.000000,4.000000,,,,0.000000,4.000000,4.000000,0.000000,4.000000,4.000000,4.000000,4.000000,4.000000,4.000000,1.000000,4.000000,4.000000,4.000000,2.000000,25.000000
1602278868.729222,74.000000,0.000000,3914.871826,4598.461426,4166.153809,4247.692383,3273.846191,4630.769043,3988.718018,3863.076904,4304.615234,3974.358887,4197.948730,4134.871582,3934.871826,3977.435791,444.000000,4.000000,,,,0.000000,4.000000,4.000000,0.000000,4.000000,4.000000,4.000000,4.000000,4.000000,4.000000,1.000000,4.000000,4.000000,4.000000,2.000000,25.000000
1602278868.737047,75.000000,0.000000,3915.384521,4597.436035,4169.743652,4245.128418,3283.589844,4623.077148,3981.025635,3864.615479,4301.538574,3966.666748,4188.717773,4130.256348,3925.128174,3976.410156,228.000000,4.000000,,,,0.000000,4.000000,4.000000,0.000000,4.000000,4.000000,4.000000,4.000000,4.000000,4.000000,1.000000,4.000000,4.000000,4.000000,2.000000,25.000000
1602278868.744772,76.000000,0.000000,3913.846191,4605.128418,4164.615234,4247.179688,3286.153809,4622.563965,3993.333252,3871.794922,4302.563965,3968.205078,4193.333496,4140.000000,3933.333252,3978.461426,426.000000,4.000000,,,,0.000000,4.000000,4.000000,0.000000,4.000000,4.000000,4.000000,4.000000,4.000000,4.000000,1.000000,4.000000,4.000000,4.000000,2.000000,25.000000
1602278868.752597,77.000000,0.000000,3913.846191,4609.230957,4165.641113,4246.153809,3297.435791,4635.384766,4005.128174,3881.538574,4312.307617,3972.307617,4202.563965,4148.205078,3948.718018,3982.051270,355.000000,4.000000,,,,0.000000,4.000000,4.000000,0.000000,4.000000,4.000000,4.000000,4.000000,4.000000,4.000000,1.000000,4.000000,4.000000,4.000000,2.000000,25.000000
1602278868.760322,78.000000,0.000000,3914.358887,4607.692383,4167.692383,4246.666504,3302.564209,4630.769043,3995.897461,3882.051270,4310.769043,3969.743652,4200.512695,4141.025879,3953.846191,3978.461426,444.000000,4.000000,,,,0.000000,4.000000,4.000000,0.000000,4.000000,4.000000,4.000000,4.000000,4.000000,4.000000,1.000000,4.000000,4.000000,4.000000,2.000000,25.000000
1602278868.768249,79.000000,0.000000,3912.820557,4603.077148,4163.077148,4249.743652,3293.333252,4613.333496,3986.153809,3867.692383,4294.871582,3970.256348,4200.512695,4134.871582,3948.718018,3976.923096,228.000000,4.000000,,,,0.000000,4.000000,4.000000,0.000000,4.000000,4.000000,4.000000,4.000000,4.000000,4.000000,1.000000,4.000000,4.000000,4.000000,2.000000,25.000000
1602278868.776076,80.000000,0.000000,3913.846191,4600.000000,4161.025879,4248.717773,3294.871826,4619.487305,3990.769287,3863.076904,4294.871582,3972.307617,4212.307617,4137.436035,3951.794922,3982.051270,426.000000,4.000000,,,,0.000000,4.000000,4.000000,0.000000,4.000000,4.000000,4.000000,4.000000,4.000000,4.000000,1.000000,4.000000,4.000000,4.000000,2.000000,25.000000
1602278868.784002,81.000000,0.000000,3913.333252,4602.563965,4166.666504,4245.641113,3302.051270,4635.384766,3996.923096,3877.435791,4311.794922,3972.307617,4212.307617,4139.487305,3962.051270,3983.589844,355.000000,4.000000,,,,0.000000,4.000000,4.000000,0.000000,4.000000,4.000000,4.000000,4.000000,4.000000,4.000000,1.000000,4.000000,4.000000,4.000000,2.000000,25.000000
1602278868.791829,82.000000,0.000000,3908.205078,4606.153809,4165.128418,4245.128418,3305.641113,4634.358887,3998.974365,3887.692383,4320.512695,3972.820557,4203.589844,4137.948730,3957.435791,3978.461426,444.000000,4.000000,,,,0.000000,4.000000,4.000000,0.000000,4.000000,4.000000,4.000000,4.000000,4.000000,4.000000,1.000000,4.000000,4.000000,4.000000,2.000000,25.000000
1602278868.799755,83.000000,0.000000,3913.333252,4614.358887,4164.615234,4247.179688,3314.871826,4632.820313,4008.205078,3884.102539,4320.512695,3973.846191,4211.282227,4143.077148,3953.846191,3983.076904,228.000000,4.000000,,,,0.000000,4.000000,4.000000,0.000000,4.000000,4.000000,4.000000,4.000000,4.000000,4.000000,1.000000,4.000000,4.000000,4.000000,2.000000,25.000000
1602278868.807582,84.000000,0.000000,3922.051270,4619.487305,4165.128418,4248.205078,3324.102539,4632.307617,4010.769287,3880.000000,4315.384766,3973.333252,4220.512695,4150.769043,3963.076904,3990.769287,426.000000,4.000000,,,,0.000000,4.000000,4.000000,0.000000,4.000000,4.000000,4.000000,4.000000,4.000000,4.000000,1.000000,4.000000,4.000000,4.000000,2.000000,25.000000
1602278868.815508,85.000000,0.000000,3916.410156,4608.205078,4162.563965,4248.205078,3318.461426,4621.538574,3993.333252,3875.897461,4303.077148,3973.333252,4211.794922,4148.205078,3963.589844,3986.666748,355.000000,4.000000,,,,0.000000,4.000000,4.000000,0.000000,4.000000,4.000000,4.000000,4.000000,4.000000,4.000000,1.000000,4.000000,4.000000,4.000000,2.000000,25.000000
1602278868.823335,86.000000,0.000000,3912.820557,4602.051270,4163.589844,4249.230957,3316.410156,4625.128418,3990.769287,3872.307617,4304.102539,3973.846191,4207.692383,4144.102539,3960.000000,3982.051270,444.000000,4.000000,,,,0.000000,4.000000,4.000000,0.000000,4.000000,4.000000,4.000000,4.000000,4.000000,4.000000,1.000000,4.000000,4.000000,4.000000,2.000000,25.000000
1602278868.831261,87.000000,0.000000,3917.435791,4608.717773,4166.666504,4247.179688,3329.743652,4636.410156,4007.179443,3876.923096,4318.974121,3973.846191,4216.922852,4148.205078,3966.153809,3986.153809,228.000000,4.000000,,,,0.000000,4.000000,4.000000,0.000000,4.000000,4.000000,4.000000,4.000000,4.000000,4.000000,1.000000,4.000000,4.000000,4.000000,2.000000,25.000000
1602278868.839087,88.000000,0.000000,3918.974365,4612.820313,4161.538574,4244.615234,3335.384521,4633.333496,4003.076904,3881.538574,4318.461426,3973.846191,4220.000000,4150.256348,3966.153809,3988.205078,426.000000,4.000000,,,,0.000000,4.000000,4.000000,0.000000,4.000000,4.000000,4.000000,4.000000,4.000000,4.000000,1.000000,4.000000,4.000000,4.000000,2.000000,25.000000
1602278868.847013,89.000000,0.000000,3920.000000,4607.692383,4162.051270,4248.205078,3329.743652,4624.615234,3980.000000,3873.333252,4307.692383,3971.794922,4211.794922,4144.615234,3960.000000,3985.128174,355.000000,4.000000,,,,0.000000,4.000000,4.000000,0.000000,4.000000,4.000000,4.000000,4.000000,4.000000,4.000000,1.000000,4.000000,4.000000,4.000000,2.000000,25.000000
1602278868.854839,90.000000,0.000000,3916.923096,4598.461426,4169.743652,4252.820313,3327.179443,4623.589844,3979.487061,3866.666748,4306.153809,3972.820557,4205.641113,4141.025879,3962.051270,3983.076904,444.000000,4.000000,,,,0.000000,4.000000,4.000000,0.000000,4.000000,4.000000,4.000000,4.000000,4.000000,4.000000,1.000000,4.000000,4.000000,4.000000,2.000000,25.000000
1602278868.862564,91.000000,0.000000,3910.256348,4600.000000,4168.205078,4240.512695,3333.846191,4626.666504,3997.435791,3873.846191,4310.769043,3974.871826,4211.794922,4143.589844,3967.692383,3985.128174,228.000000,4.000000,,,,0.000000,4.000000,4.000000,0.000000,4.000000,4.000000,4.000000,4.000000,4.000000,4.000000,1.000000,4.000000,4.000000,4.000000,2.000000,25.000000
1602278868.870390,92.000000,0.000000,3912.307617,4609.743652,4166.153809,4224.615234,3336.410156,4631.282227,4005.641113,3885.128174,4315.384766,3976.923096,4218.461426,4148.717773,3969.230713,3987.179443,426.000000,4.000000,,,,0.000000,4.000000,4.000000,0.000000,4.000000,4.000000,4.000000,4.000000,4.000000,4.000000,1.000000,4.000000,4.000000,4.000000,2.000000,25.000000
1602278868.878115,93.000000,0.000000,3916.923096,4611.794922,4168.205078,4236.410156,3338.461426,4633.333496,4010.769287,3892.307617,4319.487305,3981.025635,4217.948730,4151.282227,3976.410156,3985.128174,355.000000,4.000000,,,,0.000000,4.000000,4.000000,0.000000,4.000000,4.000000,4.000000,4.000000,4.000000,4.000000,1.000000,4.000000,4.000000,4.000000,2.000000,25.000000
1602278868.885941,94.000000,0.000000,3913.846191,4611.794922,4166.666504,4253.846191,3347.179443,4627.179688,4010.256348,3893.333252,4320.512695,3982.564209,4216.922852,4150.256348,3980.512939,3983.076904,444.000000,4.000000,,,,0.000000,4.000000,4.000000,0.000000,4.000000,4.000000,4.000000,4.000000,4.000000,4.000000,1.000000,4.000000,4.000000,4.000000,2.000000,25.000000
1602278868.893666,95.000000,0.000000,3902.051270,4614.358887,4162.563965,4251.794922,3349.743652,4619.487305,3999.487061,3880.512939,4315.897461,3976.410156,4207.692383,4142.051270,3964.615479,3977.435791,228.000000,4.000000,,,,0.000000,4.000000,4.000000,0.000000,4.000000,4.000000,4.000000,4.000000,4.000000,4.000000,1.000000,4.000000,4.000000,4.000000,2.000000,25.000000
1602278868.901491,96.000000,0.000000,3895.897461,4606.666504,4166.153809,4247.692383,3345.641113,4621.025879,4002.564209,3872.307617,4309.230957,3971.281982,4193.846191,4133.333496,3946.666748,3971.281982,426.000000,4.000000,,,,0.000000,4.000000,4.000000,0.000000,4.000000,4.000000,4.000000,4.000000,4.000000,4.000000,1.000000,4.000000,4.000000,4.000000,2.000000,25.000000
1602278868.909216,97.000000,0.000000,3899.487061,4598.974121,4166.666504,4250.769043,3352.820557,4628.205078,4011.794922,3874.358887,4304.102539,3970.769287,4190.769043,4126.666504,3946.666748,3970.256348,355.000000,4.000000,,,,0.000000,4.000000,4.000000,0.000000,4.000000,4.000000,4.000000,4.000000,4.000000,4.000000,1.000000,4.000000,4.000000,4.000000,2.000000,25.000000
1602278868.917144,98.000000,0.000000,3897.948730,4595.384766,4167.692383,4247.692383,3362.051270,4622.563965,3986.666748,3861.025635,4293.333496,3970.769287,4189.743652,4124.615234,3948.718018,3971.281982,444.000000,4.000000,,,,0.000000,4.000000,4.000000,0.000000,4.000000,4.000000,4.000000,4.000000,4.000000,4.000000,1.000000,4.000000,4.000000,4.000000,2.000000,25.000000
1602278868.924971,99.000000,0.000000,3896.923096,4589.743652,4165.641113,4245.641113,3358.974365,4620.000000,3965.128174,3853.333252,4292.307617,3972.307617,4188.717773,4131.282227,3944.102539,3971.281982,228.000000,4.000000,,,,0.000000,4.000000,4.000000,0.000000,4.000000,4.000000,4.000000,4.000000,4.000000,4.000000,1.000000,4.000000,4.000000,4.000000,2.000000,25.000000
1602278868.932798,100.000000,0.000000,3911.794922,4597.948730,4163.077148,4250.769043,3355.897461,4638.461426,3991.281982,3878.461426,4315.897461,3974.871826,4201.538574,4144.615234,3947.179443,3976.923096,426.000000,4.000000,,,,0.000000,4.000000,4.000000,0.000000,4.000000,4.000000,4.000000,4.000000,4.000000,4.000000,1.000000,4.000000,4.000000,4.000000,2.000000,25.000000
1602278868.940523,101.000000,0.000000,3919.487061,4608.205078,4163.077148,4249.230957,3361.538574,4644.615234,4012.820557,3895.897461,4327.179688,3972.820557,4207.692383,4148.717773,3951.281982,3980.000000,355.000000,4.000000,,,,0.000000,4.000000,4.000000,0.000000,4.000000,4.000000,4.000000,4.000000,4.000000,4.000000,1.000000,4.000000,4.000000,4.000000,2.000000,25.000000
1602278868.948348,102.000000,0.000000,3908.718018,4606.666504,4166.153809,4245.641113,3359.487061,4628.717773,3996.923096,3884.102539,4313.333496,3971.794922,4202.051270,4144.102539,3952.820557,3977.435791,444.000000,4.000000,,,,0.000000,4.000000,4.000000,0.000000,4.000000,4.000000,4.000000,4.000000,4.000000,4.000000,1.000000,4.000000,4.000000,4.000000,2.000000,25.000000
1602278868.956073,103.000000,0.000000,3912.820557,4602.051270,4167.692383,4246.666504,3357.948730,4625.641113,3990.769287,3879.487061,4307.692383,3973.846191,4202.563965,4144.615234,3958.461426,3978.974365,228.000000,4.000000,,,,0.000000,4.000000,4.000000,0.000000,4.000000,4.000000,4.000000,4.000000,4.000000,4.000000,1.000000,4.000000,4.000000,4.000000,2.000000,25.000000
1602278868.963999,104.000000,0.000000,3924.102539,4601.538574,4168.717773,4248.205078,3372.307617,4630.769043,4000.000000,3882.051270,4310.769043,3972.820557,4204.615234,4146.666504,3957.435791,3982.051270,426.000000,4.000000,,,,0.000000,4.000000,4.000000,0.000000,4.000000,4.000000,4.000000,4.000000,4.000000,4.000000,1.000000,4.000000,4.000000,4.000000,2.000000,25.000000
1602278868.971826,105.000000,0.000000,3920.000000,4603.589844,4165.128418,4251.282227,3384.615479,4625.128418,3994.871826,3870.769287,4300.512695,3970.256348,4198.461426,4144.102539,3951.281982,3980.000000,355.000000,4.000000,,,,0.000000,4.000000,4.000000,0.000000,4.000000,4.000000,4.000000,4.000000,4.000000,4.000000,1.000000,4.000000,4.000000,4.000000,2.000000,25.000000
1602278868.979753,106.000000,0.000000,3915.384521,4604.615234,4163.077148,4248.205078,3378.461426,4626.666504,3989.230713,3870.256348,4294.358887,3970.769287,4197.948730,4144.102539,3951.281982,3979.487061,444.000000,4.000000,,,,0.000000,4.000000,4.000000,0.000000,4.000000,4.000000,4.000000,4.000000,4.000000,4.000000,1.000000,4.000000,4.000000,4.000000,2.000000,25.000000
1602278868.987579,107.000000,0.000000,3918.461426,4601.025879,4166.666504,4242.051270,3371.794922,4624.102539,3993.333252,3877.948730,4301.025879,3972.307617,4203.077148,4145.128418,3947.692383,3982.051270,228.000000,4.000000,,,,0.000000,4.000000,4.000000,0.000000,4.000000,4.000000,4.000000,4.000000,4.000000,4.000000,1.000000,4.000000,4.000000,4.000000,2.000000,25.000000
1602278868.995505,108.000000,0.000000,3920.000000,4606.666504,4165.128418,4250.256348,3381.538574,4615.897461,3994.358887,3881.025635,4309.743652,3973.846191,4205.641113,4146.666504,3947.692383,3981.025635,426.000000,4.000000,,,,0.000000,4.000000,4.000000,0.000000,4.000000,4.000000,4.000000,4.000000,4.000000,4.000000,1.000000,4.000000,4.000000,4.000000,2.000000,25.000000
1602278869.003332,109.000000,0.000000,3917.948730,4621.025879,4166.153809,4266.666504,3386.666748,4628.717773,3994.871826,3891.281982,4316.922852,3974.358887,4210.769043,4149.230957,3965.128174,3982.051270,355.000000,4.000000,,,,0.000000,4.000000,4.000000,0.000000,4.000000,4.000000,4.000000,4.000000,4.000000,4.000000,1.000000,4.000000,4.000000,4.000000,2.000000,25.000000
1602278869.011258,110.000000,0.000000,3913.846191,4623.077148,4169.743652,4265.128418,3383.589844,4641.025879,3997.948730,3894.358887,4315.897461,3973.846191,4213.333496,4147.692383,3975.897461,3982.051270,444.000000,4.000000,,,,0.000000,4.000000,4.000000,0.000000,4.000000,4.000000,4.000000,4.000000,4.000000,4.000000,1.000000,4.000000,4.000000,4.000000,2.000000,25.000000
1602278869.019186,111.000000,0.000000,3911.794922,4609.743652,4166.666504,4251.794922,3387.692383,4628.205078,3990.256348,3873.333252,4301.025879,3973.333252,4199.487305,4136.410156,3963.076904,3977.948730,228.000000,4.000000,,,,0.000000,4.000000,4.000000,0.000000,4.000000,4.000000,4.000000,4.000000,4.000000,4.000000,1.000000,4.000000,4.000000,4.000000,2.000000,25.000000
1602278869.027015,112.000000,0.000000,3914.358887,4598.974121,4160.512695,4246.666504,3393.333252,4620.512695,3986.153809,3860.512939,4292.307617,3971.794922,4189.230957,4129.743652,3946.666748,3973.333252,426.000000,4.000000,,,,0.000000,4.000000,4.000000,0.000000,4.000000,4.000000,4.000000,4.000000,4.000000,4.000000,1.000000,4.000000,4.000000,4.000000,2.000000,25.000000
1602278869.034843,113.000000,0.000000,3915.384521,4600.000000,4164.615234,4248.717773,3395.384521,4628.717773,3993.333252,3872.307617,4301.538574,3971.281982,4195.897461,4135.897461,3947.179443,3975.897461,355.000000,4.000000,,,,0.000000,4.000000,4.000000,0.000000,4.000000,4.000000,4.000000,4.000000,4.000000,4.000000,1.000000,4.000000,4.000000,4.000000,2.000000,25.000000
1602278869.042569,114.000000,0.000000,3908.205078,4606.153809,4164.102539,4251.794922,3401.538574,4625.128418,3989.230713,3878.974365,4307.692383,3976.410156,4203.077148,4140.512695,3955.384521,3978.974365,444.000000,4.000000,,,,0.000000,4.000000,4.000000,0.000000,4.000000,4.000000,4.000000,4.000000,4.000000,4.000000,1.000000,4.000000,4.000000,4.000000,2.000000,25.000000
1602278869.050394,115.000000,0.000000,3906.666748,4607.692383,4162.563965,4249.743652,3406.153809,4623.589844,3988.718018,3878.974365,4306.153809,3980.512939,4201.025879,4142.563965,3956.923096,3979.487061,228.000000,4.000000,,,,0.000000,4.000000,4.000000,0.000000,4.000000,4.000000,4.000000,4.000000,4.000000,4.000000,1.000000,4.000000,4.000000,4.000000,2.000000,25.000000
1602278869.058120,116.000000,0.000000,3911.794922,4606.153809,4164.102539,4246.666504,3405.641113,4637.436035,4006.666748,3883.076904,4309.743652,3977.435791,4203.077148,4144.102539,3958.461426,3978.974365,426.000000,4.000000,,,,0.000000,4.000000,4.000000,0.000000,4.000000,4.000000,4.000000,4.000000,4.000000,4.000000,1.000000,4.000000,4.000000,4.000000,2.000000,25.000000
1602278869.065945,117.000000,0.000000,3913.333252,4607.179688,4166.153809,4248.717773,3408.718018,4636.410156,4001.538574,3877.435791,4307.692383,3975.384521,4199.487305,4139.487305,3964.615479,3976.923096,355.000000,4.000000,,,,0.000000,4.000000,4.000000,0.000000,4.000000,4.000000,4.000000,4.000000,4.000000,4.000000,1.000000,4.000000,4.000000,4.000000,2.000000,25.000000
1602278869.073671,118.000000,0.000000,3908.718018,4601.538574,4165.641113,4239.487305,3408.205078,4615.384766,3972.307617,3862.051270,4292.820313,3974.358887,4190.256348,4130.769043,3962.051270,3973.846191,444.000000,4.000000,,,,0.000000,4.000000,4.000000,0.000000,4.000000,4.000000,4.000000,4.000000,4.000000,4.000000,1.000000,4.000000,4.000000,4.000000,2.000000,25.000000
1602278869.081496,119.000000,0.000000,3910.256348,4597.436035,4166.666504,4228.205078,3398.461426,4611.794922,3975.897461,3860.000000,4288.717773,3972.820557,4190.256348,4128.717773,3951.794922,3974.358887,228.000000,4.000000,,,,0.000000,4.000000,4.000000,0.000000,4.000000,4.000000,4.000000,4.000000,4.000000,4.000000,1.000000,4.000000,4.000000,4.000000,2.000000,25.000000
1602278869.089221,120.000000,0.000000,3914.871826,4606.666504,4167.179688,4243.589844,3401.025635,4627.179688,3999.487061,3872.307617,4303.589844,3973.333252,4195.384766,4130.769043,3952.820557,3976.923096,426.000000,4.000000,,,,0.000000,4.000000,4.000000,0.000000,4.000000,4.000000,4.000000,4.000000,4.000000,4.000000,1.000000,4.000000,4.000000,4.000000,2.000000,25.000000
1602278869.097046,121.000000,0.000000,3910.769287,4601.025879,4166.153809,4257.436035,3415.897461,4621.538574,3989.743652,3872.307617,4305.641113,3972.307617,4193.333496,4130.769043,3958.461426,3976.410156,355.000000,4.000000,,,,0.000000,4.000000,4.000000,0.000000,4.000000,4.000000,4.000000,4.000000,4.000000,4.000000,1.000000,4.000000,4.000000,4.000000,2.000000,25.000000
1602278869.104771,122.000000,0.000000,3910.769287,4591.282227,4166.153809,4248.717773,3415.897461,4609.743652,3970.769287,3860.000000,4292.307617,3971.794922,4190.256348,4129.230957,3952.820557,3977.948730,444.000000,4.000000,,,,0.000000,4.000000,4.000000,0.000000,4.000000,4.000000,4.000000,4.000000,4.000000,4.000000,1.000000,4.000000,4.000000,4.000000,2.000000,25.000000
1602278869.112596,123.000000,0.000000,3920.000000,4610.769043,4166.666504,4251.794922,3408.718018,4621.025879,3980.512939,3865.128174,4296.922852,3976.923096,4196.410156,4135.384766,3949.230713,3986.666748,228.000000,4.000000,,,,0.000000,4.000000,4.000000,0.000000,4.000000,4.000000,4.000000,4.000000,4.000000,4.000000,1.000000,4.000000,4.000000,4.000000,2.000000,25.000000
1602278869.120321,124.000000,0.000000,3928.205078,4631.794922,4163.077148,4260.512695,3420.512939,4632.307617,4001.025635,3884.102539,4315.897461,3980.000000,4207.692383,4148.717773,3961.538574,3989.230713,426.000000,4.000000,,,,0.000000,4.000000,4.000000,0.000000,4.000000,4.000000,4.000000,4.000000,4.000000,4.000000,1.000000,4.000000,4.000000,4.000000,2.000000,25.000000
1602278869.128146,125.000000,0.000000,3923.589844,4619.487305,4160.000000,4249.230957,3429.230713,4621.025879,3989.743652,3883.589844,4316.410156,3976.923096,4205.641113,4149.230957,3972.307617,3980.512939,355.000000,4.000000,,,,0.000000,4.000000,4.000000,0.000000,4.000000,4.000000,4.000000,4.000000,4.000000,4.000000,1.000000,4.000000,4.000000,4.000000,2.000000,25.000000
1602278869.135870,126.000000,0.000000,3911.281982,4599.487305,4164.102539,4242.051270,3417.435791,4605.128418,3962.564209,3865.128174,4298.974121,3973.846191,4192.820313,4136.922852,3964.102539,3976.410156,444.000000,4.000000,,,,0.000000,4.000000,4.000000,0.000000,4.000000,4.000000,4.000000,4.000000,4.000000,4.000000,1.000000,4.000000,4.000000,4.000000,2.000000,25.000000
1602278869.143797,127.000000,0.000000,3905.128174,4602.051270,4163.589844,4247.692383,3415.897461,4607.179688,3966.153809,3860.512939,4290.256348,3973.846191,4193.333496,4134.358887,3952.307617,3977.435791,228.000000,4.000000,,,,0.000000,4.000000,4.000000,0.000000,4.000000,4.000000,4.000000,4.000000,4.000000,4.000000,1.000000,4.000000,4.000000,4.000000,2.000000,25.000000
1602278869.151623,128.000000,0.000000,3911.281982,4608.717773,4160.512695,4251.794922,3428.718018,4620.512695,3986.666748,3869.230713,4297.436035,3974.871826,4206.153809,4143.077148,3957.948730,3981.025635,426.000000,4.000000,,,,0.000000,4.000000,4.000000,0.000000,4.000000,4.000000,4.000000,4.000000,4.000000,4.000000,1.000000,4.000000,4.000000,4.000000,2.000000,25.000000
1602278869.159550,0.000000,0.000000,3910.256348,4601.538574,4159.487305,4248.205078,3429.743652,4617.948730,3984.615479,3867.692383,4299.487305,3973.333252,4202.051270,4138.461426,3964.615479,3978.461426,0.000000,4.000000,,,,0.000000,4.000000,4.000000,0.000000,4.000000,4.000000,4.000000,4.000000,4.000000,4.000000,1.000000,4.000000,4.000000,4.000000,2.000000,25.000000
1602278869.167376,1.000000,0.000000,3898.974365,4591.794922,4164.615234,4236.410156,3424.102539,4609.743652,3976.923096,3860.512939,4290.256348,3970.256348,4186.666504,4128.205078,3955.384521,3974.871826,430.000000,4.000000,,,,0.000000,4.000000,4.000000,0.000000,4.000000,4.000000,4.000000,4.000000,4.000000,4.000000,1.000000,4.000000,4.000000,4.000000,2.000000,25.000000
1602278869.175302,2.000000,0.000000,3901.538574,4595.897461,4165.128418,4234.871582,3430.769287,4627.179688,3993.333252,3868.718018,4292.820313,3971.794922,4186.666504,4131.282227,3943.589844,3974.871826,390.000000,4.000000,,,,0.000000,4.000000,4.000000,0.000000,4.000000,4.000000,4.000000,4.000000,4.000000,4.000000,1.000000,4.000000,4.000000,4.000000,2.000000,25.000000
1602278869.183128,3.000000,0.000000,3903.076904,4593.333496,4163.077148,4240.512695,3430.769287,4635.384766,3997.435791,3878.461426,4303.077148,3970.769287,4186.666504,4132.307617,3934.871826,3972.820557,448.000000,4.000000,,,,0.000000,4.000000,4.000000,0.000000,4.000000,4.000000,4.000000,4.000000,4.000000,4.000000,1.000000,4.000000,4.000000,4.000000,2.000000,25.000000
1602278869.191054,4.000000,0.000000,3896.410156,4582.051270,4162.563965,4235.384766,3427.179443,4617.436035,3984.615479,3877.435791,4302.051270,3970.256348,4184.102539,4127.179688,3937.435791,3971.281982,485.000000,4.000000,,,,0.000000,4.000000,4.000000,0.000000,4.000000,4.000000,4.000000,4.000000,4.000000,4.000000,1.000000,4.000000,4.000000,4.000000,2.000000,25.000000
1602278869.198880,5.000000,0.000000,3907.179443,4601.025879,4165.641113,4241.538574,3447.692383,4620.000000,3990.769287,3887.692383,4310.256348,3981.025635,4200.512695,4138.461426,3963.076904,3978.974365,413.000000,4.000000,,,,0.000000,4.000000,4.000000,0.000000,4.000000,4.000000,4.000000,4.000000,4.000000,4.000000,1.000000,4.000000,4.000000,4.000000,2.000000,25.000000
1602278869.206806,6.000000,0.000000,3920.000000,4625.641113,4165.641113,4260.000000,3458.974365,4636.410156,4005.128174,3896.923096,4325.128418,3985.128174,4213.333496,4149.743652,3981.538574,3982.051270,473.000000,4.000000,,,,0.000000,4.000000,4.000000,0.000000,4.000000,4.000000,4.000000,4.000000,4.000000,4.000000,1.000000,4.000000,4.000000,4.000000,2.000000,25.000000
1602278869.214633,7.000000,0.000000,3910.256348,4624.102539,4163.589844,4264.102539,3445.128174,4630.256348,4000.512939,3886.153809,4320.512695,3975.384521,4202.563965,4139.487305,3971.281982,3973.846191,393.000000,4.000000,,,,0.000000,4.000000,4.000000,0.000000,4.000000,4.000000,4.000000,4.000000,4.000000,4.000000,1.000000,4.000000,4.000000,4.000000,2.000000,25.000000
1602278869.222558,8.000000,0.000000,3903.076904,4619.487305,4164.615234,4263.589844,3447.179443,4622.563965,3978.974365,3876.923096,4309.743652,3975.384521,4198.461426,4130.256348,3966.666748,3974.871826,414.000000,4.000000,,,,0.000000,4.000000,4.000000,0.000000,4.000000,4.000000,4.000000,4.000000,4.000000,4.000000,1.000000,4.000000,4.000000,4.000000,2.000000,25.000000
1602278869.230384,9.000000,0.000000,3913.846191,4621.538574,4166.666504,4263.077148,3460.512939,4622.051270,3966.666748,3874.358887,4307.692383,3979.487061,4203.589844,4136.922852,3975.897461,3983.589844,60.000000,4.000000,,,,0.000000,4.000000,4.000000,0.000000,4.000000,4.000000,4.000000,4.000000,4.000000,4.000000,1.000000,4.000000,4.000000,4.000000,2.000000,25.000000
1602278869.238110,10.000000,0.000000,3917.948730,4619.487305,4169.230957,4256.410156,3459.487061,4614.871582,3975.897461,3871.794922,4305.641113,3976.410156,4197.948730,4140.512695,3972.307617,3985.128174,444.000000,4.000000,,,,0.000000,4.000000,4.000000,0.000000,4.000000,4.000000,4.000000,4.000000,4.000000,4.000000,1.000000,4.000000,4.000000,4.000000,2.000000,25.000000
1602278869.245935,11.000000,0.000000,3911.281982,4610.256348,4166.666504,4257.948730,3457.948730,4608.717773,3981.538574,3869.743652,4298.974121,3973.846191,4194.871582,4137.436035,3964.102539,3978.461426,229.000000,4.000000,,,,0.000000,4.000000,4.000000,0.000000,4.000000,4.000000,4.000000,4.000000,4.000000,4.000000,1.000000,4.000000,4.000000,4.000000,2.000000,25.000000
1602278869.253661,12.000000,0.000000,3909.230713,4601.025879,4164.615234,4261.538574,3461.025635,4607.179688,3970.769287,3868.205078,4295.897461,3973.846191,4200.512695,4137.948730,3970.256348,3975.384521,426.000000,4.000000,,,,0.000000,4.000000,4.000000,0.000000,4.000000,4.000000,4.000000,4.000000,4.000000,4.000000,1.000000,4.000000,4.000000,4.000000,2.000000,25.000000
1602278869.261486,13.000000,0.000000,3913.333252,4609.743652,4165.641113,4261.025879,3460.000000,4618.974121,3977.435791,3872.307617,4305.641113,3973.846191,4203.077148,4143.077148,3978.461426,3980.000000,355.000000,4.000000,,,,0.000000,4.000000,4.000000,0.000000,4.000000,4.000000,4.000000,4.000000,4.000000,4.000000,1.000000,4.000000,4.000000,4.000000,2.000000,25.000000
1602278869.269212,14.000000,0.000000,3918.461426,4623.589844,4165.128418,4267.179688,3467.179443,4640.512695,4000.000000,3885.128174,4321.025879,3979.487061,4205.641113,4146.666504,3983.076904,3983.589844,444.000000,4.000000,,,,0.000000,4.000000,4.000000,0.000000,4.000000,4.000000,4.000000,4.000000,4.000000,4.000000,1.000000,4.000000,4.000000,4.000000,2.000000,25.000000
1602278869.277037,15.000000,0.000000,3917.948730,4613.846191,4162.051270,4269.230957,3475.897461,4638.974121,4001.025635,3891.794922,4324.102539,3983.589844,4207.179688,4147.692383,3986.666748,3982.051270,229.000000,4.000000,,,,0.000000,4.000000,4.000000,0.000000,4.000000,4.000000,4.000000,4.000000,4.000000,4.000000,1.000000,4.000000,4.000000,4.000000,2.000000,25.000000
1602278869.284762,16.000000,0.000000,3915.897461,4604.615234,4166.666504,4262.051270,3470.769287,4626.666504,3993.846191,3885.128174,4311.282227,3979.487061,4206.153809,4148.717773,3980.000000,3986.666748,0.000000,4.000000,,,,0.000000,4.000000,4.000000,0.000000,4.000000,4.000000,4.000000,4.000000,4.000000,4.000000,1.000000,4.000000,4.000000,4.000000,2.000000,25.000000
1602278869.292587,17.000000,0.000000,3914.358887,4615.897461,4168.717773,4260.512695,3468.205078,4631.282227,3995.897461,3883.589844,4310.256348,3980.512939,4207.179688,4146.153809,3973.333252,3985.641113,0.000000,4.000000,,,,0.000000,4.000000,4.000000,0.000000,4.000000,4.000000,4.000000,4.000000,4.000000,4.000000,1.000000,4.000000,4.000000,4.000000,2.000000,25.000000
1602278869.300312,18.000000,0.000000,3907.692383,4610.256348,4167.692383,4260.000000,3467.179443,4629.230957,3992.820557,3892.307617,4318.974121,3982.564209,4207.179688,4144.102539,3975.897461,3978.461426,0.000000,4.000000,,,,0.000000,4.000000,4.000000,0.000000,4.000000,4.000000,4.000000,4.000000,4.000000,4.000000,1.000000,4.000000,4.000000,4.000000,2.000000,25.000000
1602278869.308137,19.000000,0.000000,3897.435791,4590.769043,4164.102539,4256.410156,3466.153809,4615.897461,3990.769287,3898.974365,4319.487305,3980.000000,4206.153809,4142.051270,3978.974365,3978.461426,0.000000,4.000000,,,,0.000000,4.000000,4.000000,0.000000,4.000000,4.000000,4.000000,4.000000,4.000000,4.000000,1.000000,4.000000,4.000000,4.000000,2.000000,25.000000
1602278869.315861,20.000000,0.000000,3895.897461,4590.256348,4162.563965,4258.461426,3470.769287,4621.538574,3993.333252,3889.743652,4309.743652,3978.974365,4202.563965,4134.871582,3971.794922,3977.948730,0.000000,4.000000,,,,0.000000,4.000000,4.000000,0.000000,4.000000,4.000000,4.000000,4.000000,4.000000,4.000000,1.000000,4.000000,4.000000,4.000000,2.000000,25.000000
1602278869.323685,21.000000,0.000000,3894.358887,4595.897461,4160.512695,4264.102539,3473.846191,4621.025879,3978.461426,3872.307617,4294.871582,3975.384521,4190.769043,4126.666504,3961.025635,3968.205078,0.000000,4.000000,,,,0.000000,4.000000,4.000000,0.000000,4.000000,4.000000,4.000000,4.000000,4.000000,4.000000,1.000000,4.000000,4.000000,4.000000,2.000000,25.000000
1602278869.331410,22.000000,0.000000,3893.846191,4597.436035,4164.615234,4265.128418,3478.461426,4612.820313,3968.718018,3867.179443,4292.307617,3972.307617,4184.615234,4128.205078,3964.102539,3971.281982,0.000000,4.000000,,,,0.000000,4.000000,4.000000,0.000000,4.000000,4.000000,4.000000,4.000000,4.000000,4.000000,1.000000,4.000000,4.000000,4.000000,2.000000,25.000000
1602278869.339234,23.000000,0.000000,3900.000000,4605.641113,4166.666504,4263.589844,3486.153809,4625.128418,3983.589844,3869.230713,4297.436035,3972.307617,4190.256348,4131.282227,3973.333252,3980.000000,0.000000,4.000000,,,,0.000000,4.000000,4.000000,0.000000,4.000000,4.000000,4.000000,4.000000,4.000000,4.000000,1.000000,4.000000,4.000000,4.000000,2.000000,25.000000
1602278869.346959,24.000000,0.000000,3901.025635,4617.436035,4163.077148,4263.077148,3481.025635,4628.717773,3986.153809,3864.615479,4289.230957,3971.794922,4189.230957,4126.666504,3967.692383,3973.333252,0.000000,4.000000,,,,0.000000,4.000000,4.000000,0.000000,4.000000,4.000000,4.000000,4.000000,4.000000,4.000000,1.000000,4.000000,4.000000,4.000000,2.000000,25.000000
1602278869.354885,25.000000,0.000000,3897.435791,4620.000000,4162.051270,4264.615234,3478.461426,4615.897461,3973.333252,3857.948730,4281.538574,3971.281982,4185.641113,4124.615234,3961.025635,3968.718018,0.000000,4.000000,,,,0.000000,4.000000,4.000000,0.000000,4.000000,4.000000,4.000000,4.000000,4.000000,4.000000,1.000000,4.000000,4.000000,4.000000,2.000000,25.000000
1602278869.362711,26.000000,0.000000,3904.615479,4616.410156,4165.128418,4266.666504,3502.051270,4622.563965,3980.000000,3858.974365,4296.410156,3975.384521,4196.410156,4132.307617,3964.102539,3975.897461,0.000000,4.000000,,,,0.000000,4.000000,4.000000,0.000000,4.000000,4.000000,4.000000,4.000000,4.000000,4.000000,1.000000,4.000000,4.000000,4.000000,2.000000,25.000000
1602278869.370637,27.000000,0.000000,3908.718018,4617.948730,4163.589844,4260.000000,3512.820557,4635.897461,3987.179443,3866.153809,4307.692383,3976.410156,4203.589844,4136.922852,3961.538574,3977.435791,0.000000,4.000000,,,,0.000000,4.000000,4.000000,0.000000,4.000000,4.000000,4.000000,4.000000,4.000000,4.000000,1.000000,4.000000,4.000000,4.000000,2.000000,25.000000
1602278869.378463,28.000000,0.000000,3906.666748,4618.974121,4160.512695,4251.794922,3495.897461,4629.743652,3978.461426,3873.846191,4301.538574,3973.846191,4198.974121,4135.897461,3962.564209,3975.897461,0.000000,4.000000,,,,0.000000,4.000000,4.000000,0.000000,4.000000,4.000000,4.000000,4.000000,4.000000,4.000000,1.000000,4.000000,4.000000,4.000000,2.000000,25.000000
1602278869.386389,29.000000,0.000000,3910.256348,4608.205078,4165.641113,4244.615234,3488.205078,4622.563965,3977.435791,3873.846191,4303.077148,3974.871826,4200.000000,4137.948730,3974.358887,3981.538574,0.000000,4.000000,,,,0.000000,4.000000,4.000000,0.000000,4.000000,4.000000,4.000000,4.000000,4.000000,4.000000,1.000000,4.000000,4.000000,4.000000,2.000000,25.000000
1602278869.394215,30.000000,0.000000,3906.153809,4597.436035,4168.205078,4235.897461,3493.333252,4620.000000,3984.102539,3870.769287,4306.666504,3977.948730,4208.205078,4137.948730,3973.846191,3981.025635,0.000000,4.000000,,,,0.000000,4.000000,4.000000,0.000000,4.000000,4.000000,4.000000,4.000000,4.000000,4.000000,1.000000,4.000000,4.000000,4.000000,2.000000,25.000000
1602278869.402141,31.000000,0.000000,3897.435791,4602.051270,4168.717773,4231.794922,3493.333252,4616.410156,3985.128174,3878.461426,4303.589844,3982.051270,4216.922852,4137.948730,3973.333252,3977.435791,0.000000,4.000000,,,,0.000000,4.000000,4.000000,0.000000,4.000000,4.000000,4.000000,4.000000,4.000000,4.000000,1.000000,4.000000,4.000000,4.000000,2.000000,25.000000
1602278869.409967,32.000000,0.000000,3901.538574,4600.000000,4164.615234,4230.256348,3491.281982,4623.077148,3988.718018,3885.128174,4307.692383,3983.589844,4220.512695,4143.589844,3987.692383,3978.461426,0.000000,4.000000,,,,0.000000,4.000000,4.000000,0.000000,4.000000,4.000000,4.000000,4.000000,4.000000,4.000000,1.000000,4.000000,4.000000,4.000000,2.000000,25.000000
1602278869.417692,33.000000,0.000000,3903.589844,4585.641113,4163.077148,4229.230957,3494.871826,4624.615234,3992.307617,3877.435791,4307.692383,3981.025635,4214.358887,4144.102539,3984.102539,3978.974365,0.000000,4.000000,,,,0.000000,4.000000,4.000000,0.000000,4.000000,4.000000,4.000000,4.000000,4.000000,4.000000,1.000000,4.000000,4.000000,4.000000,2.000000,25.000000
1602278869.425518,34.000000,0.000000,3894.358887,4592.307617,4164.102539,4228.717773,3494.358887,4615.384766,3987.179443,3868.718018,4299.487305,3981.538574,4208.205078,4134.871582,3965.641113,3973.846191,0.000000,4.000000,,,,0.000000,4.000000,4.000000,0.000000,4.000000,4.000000,4.000000,4.000000,4.000000,4.000000,1.000000,4.000000,4.000000,4.000000,2.000000,25.000000
1602278869.433243,35.000000,0.000000,3893.846191,4607.179688,4162.563965,4231.794922,3488.718018,4615.897461,3977.948730,3871.281982,4299.487305,3985.128174,4208.717773,4131.282227,3968.718018,3971.794922,0.000000,4.000000,,,,0.000000,4.000000,4.000000,0.000000,4.000000,4.000000,4.000000,4.000000,4.000000,4.000000,1.000000,4.000000,4.000000,4.000000,2.000000,25.000000
1602278869.441068,36.000000,0.000000,3901.025635,4605.128418,4155.897461,4241.538574,3494.358887,4619.487305,3971.281982,3875.897461,4301.538574,3980.000000,4205.641113,4133.846191,3976.923096,3971.281982,0.000000,4.000000,,,,0.000000,4.000000,4.000000,0.000000,4.000000,4.000000,4.000000,4.000000,4.000000,4.000000,1.000000,4.000000,4.000000,4.000000,2.000000,25.000000
1602278869.448794,37.000000,0.000000,3901.025635,4609.230957,4160.000000,4251.794922,3510.769287,4610.769043,3970.769287,3869.230713,4293.333496,3972.307617,4196.922852,4130.256348,3968.718018,3971.794922,0.000000,4.000000,,,,0.000000,4.000000,4.000000,0.000000,4.000000,4.000000,4.000000,4.000000,4.000000,4.000000,1.000000,4.000000,4.000000,4.000000,2.000000,25.000000
1602278869.456619,38.000000,0.000000,3901.538574,4621.538574,4168.205078,4248.717773,3511.794922,4603.077148,3968.718018,3863.589844,4289.230957,3975.384521,4198.461426,4127.692383,3968.718018,3974.871826,0.000000,4.000000,,,,0.000000,4.000000,4.000000,0.000000,4.000000,4.000000,4.000000,4.000000,4.000000,4.000000,1.000000,4.000000,4.000000,4.000000,2.000000,25.000000
1602278869.464344,39.000000,0.000000,3908.718018,4625.128418,4164.615234,4245.641113,3515.384521,4617.436035,3971.794922,3871.281982,4301.025879,3986.666748,4216.410156,4138.461426,3981.538574,3980.512939,0.000000,4.000000,,,,0.000000,4.000000,4.000000,0.000000,4.000000,4.000000,4.000000,4.000000,4.000000,4.000000,1.000000,4.000000,4.000000,4.000000,2.000000,25.000000
1602278869.472169,40.000000,0.000000,3909.230713,4618.461426,4158.974121,4253.333496,3531.794922,4623.077148,3975.897461,3875.384521,4301.538574,3989.230713,4220.512695,4147.692383,3979.487061,3981.025635,0.000000,4.000000,,,,0.000000,4.000000,4.000000,0.000000,4.000000,4.000000,4.000000,4.000000,4.000000,4.000000,1.000000,4.000000,4.000000,4.000000,2.000000,25.000000
1602278869.479894,41.000000,0.000000,3902.564209,4603.589844,4164.102539,4245.641113,3524.615479,4600.512695,3970.256348,3873.333252,4290.256348,3982.051270,4204.102539,4138.974121,3971.281982,3975.384521,0.000000,4.000000,,,,0.000000,4.000000,4.000000,0.000000,4.000000,4.000000,4.000000,4.000000,4.000000,4.000000,1.000000,4.000000,4.000000,4.000000,2.000000,25.000000
1602278869.487718,42.000000,0.000000,3906.666748,4603.589844,4170.769043,4233.846191,3510.256348,4601.538574,3976.923096,3876.923096,4294.358887,3981.025635,4201.025879,4137.436035,3975.384521,3977.948730,0.000000,4.000000,,,,0.000000,4.000000,4.000000,0.000000,4.000000,4.000000,4.000000,4.000000,4.000000,4.000000,1.000000,4.000000,4.000000,4.000000,2.000000,25.000000
1602278869.495443,43.000000,0.000000,3915.384521,4620.000000,4166.666504,4245.641113,3522.051270,4634.871582,3998.461426,3882.564209,4310.256348,3985.641113,4218.461426,4150.769043,3985.128174,3986.153809,0.000000,4.000000,,,,0.000000,4.000000,4.000000,0.000000,4.000000,4.000000,4.000000,4.000000,4.000000,4.000000,1.000000,4.000000,4.000000,4.000000,2.000000,25.000000
1602278869.503267,44.000000,0.000000,3914.871826,4616.922852,4163.589844,4255.897461,3532.307617,4639.487305,4001.538574,3884.615479,4315.384766,3988.718018,4226.153809,4153.333496,3994.871826,3986.666748,0.000000,4.000000,,,,0.000000,4.000000,4.000000,0.000000,4.000000,4.000000,4.000000,4.000000,4.000000,4.000000,1.000000,4.000000,4.000000,4.000000,2.000000,25.000000
1602278869.510992,45.000000,0.000000,3905.641113,4601.538574,4164.615234,4238.974121,3520.000000,4613.846191,3986.153809,3882.051270,4308.205078,3987.179443,4215.384766,4138.974121,3996.923096,3980.512939,0.000000,4.000000,,,,0.000000,4.000000,4.000000,0.000000,4.000000,4.000000,4.000000,4.000000,4.000000,4.000000,1.000000,4.000000,4.000000,4.000000,2.000000,25.000000
1602278869.518918,46.000000,0.000000,3901.025635,4599.487305,4169.230957,4227.179688,3514.871826,4609.743652,3980.000000,3871.281982,4299.487305,3982.051270,4210.256348,4135.384766,3985.128174,3983.076904,0.000000,4.000000,,,,0.000000,4.000000,4.000000,0.000000,4.000000,4.000000,4.000000,4.000000,4.000000,4.000000,1.000000,4.000000,4.000000,4.000000,2.000000,25.000000
1602278869.526745,47.000000,0.000000,3905.641113,4600.512695,4167.692383,4236.410156,3524.102539,4618.974121,3972.307617,3869.743652,4297.948730,3979.487061,4212.820313,4142.051270,3980.512939,3982.051270,0.000000,4.000000,,,,0.000000,4.000000,4.000000,0.000000,4.000000,4.000000,4.000000,4.000000,4.000000,4.000000,1.000000,4.000000,4.000000,4.000000,2.000000,25.000000
1602278869.534671,48.000000,0.000000,3908.718018,4597.948730,4166.153809,4241.025879,3525.128174,4610.256348,3958.974365,3875.384521,4301.025879,3984.615479,4210.256348,4144.615234,3985.641113,3978.461426,0.000000,4.000000,,,,0.000000,4.000000,4.000000,0.000000,4.000000,4.000000,4.000000,4.000000,4.000000,4.000000,1.000000,4.000000,4.000000,4.000000,2.000000,25.000000
1602278869.542498,49.000000,0.000000,3900.000000,4604.102539,4165.128418,4233.333496,3518.974365,4604.615234,3966.666748,3871.794922,4301.538574,3989.743652,4205.641113,4139.487305,3976.923096,3977.948730,0.000000,4.000000,,,,0.000000,4.000000,4.000000,0.000000,4.000000,4.000000,4.000000,4.000000,4.000000,4.000000,1.000000,4.000000,4.000000,4.000000,2.000000,25.000000
1602278869.550424,50.000000,0.000000,3896.410156,4605.128418,4167.179688,4228.717773,3519.487061,4613.846191,3980.000000,3873.333252,4301.538574,3983.076904,4204.102539,4134.871582,3966.666748,3979.487061,0.000000,4.000000,,,,0.000000,4.000000,4.000000,0.000000,4.000000,4.000000,4.000000,4.000000,4.000000,4.000000,1.000000,4.000000,4.000000,4.000000,2.000000,25.000000
1602278869.558250,51.000000,0.000000,3907.179443,4601.025879,4165.128418,4236.922852,3535.384521,4623.077148,3982.051270,3881.538574,4306.153809,3980.000000,4204.615234,4140.000000,3977.435791,3978.974365,0.000000,4.000000,,,,0.000000,4.000000,4.000000,0.000000,4.000000,4.000000,4.000000,4.000000,4.000000,4.000000,1.000000,4.000000,4.000000,4.000000,2.000000,25.000000
1602278869.566176,52.000000,0.000000,3911.794922,4607.179688,4163.589844,4251.282227,3545.641113,4624.615234,3982.564209,3874.871826,4307.692383,3984.615479,4203.077148,4144.102539,3987.179443,3981.025635,0.000000,4.000000,,,,0.000000,4.000000,4.000000,0.000000,4.000000,4.000000,4.000000,4.000000,4.000000,4.000000,1.000000,4.000000,4.000000,4.000000,2.000000,25.000000
1602278869.574001,53.000000,0.000000,3901.538574,4618.461426,4163.589844,4250.256348,3536.923096,4622.051270,3980.512939,3867.692383,4301.025879,3984.102539,4203.589844,4138.974121,3978.974365,3979.487061,0.000000,4.000000,,,,0.000000,4.000000,4.000000,0.000000,4.000000,4.000000,4.000000,4.000000,4.000000,4.000000,1.000000,4.000000,4.000000,4.000000,2.000000,25.000000
1602278869.581927,54.000000,0.000000,3894.358887,4618.461426,4168.717773,4235.897461,3533.333252,4612.307617,3969.743652,3870.256348,4292.307617,3978.974365,4197.436035,4128.205078,3969.743652,3972.820557,0.000000,4.000000,,,,0.000000,4.000000,4.000000,0.000000,4.000000,4.000000,4.000000,4.000000,4.000000,4.000000,1.000000,4.000000,4.000000,4.000000,2.000000,25.000000
1602278869.589752,55.000000,0.000000,3895.897461,4613.333496,4169.743652,4237.948730,3541.025635,4605.641113,3970.256348,3864.615479,4287.692383,3976.923096,4191.794922,4127.179688,3969.743652,3972.820557,0.000000,4.000000,,,,0.000000,4.000000,4.000000,0.000000,4.000000,4.000000,4.000000,4.000000,4.000000,4.000000,1.000000,4.000000,4.000000,4.000000,2.000000,25.000000
1602278869.597478,56.000000,0.000000,3898.461426,4612.307617,4162.051270,4246.666504,3541.538574,4611.794922,3980.000000,3860.512939,4291.794922,3980.512939,4195.384766,4132.307617,3972.307617,3973.846191,0.000000,4.000000,,,,0.000000,4.000000,4.000000,0.000000,4.000000,4.000000,4.000000,4.000000,4.000000,4.000000,1.000000,4.000000,4.000000,4.000000,2.000000,25.000000
1602278869.605304,57.000000,0.000000,3899.487061,4607.692383,4157.436035,4244.102539,3542.051270,4617.436035,3977.948730,3869.743652,4297.948730,3983.076904,4200.512695,4131.282227,3970.256348,3970.769287,0.000000,4.000000,,,,0.000000,4.000000,4.000000,0.000000,4.000000,4.000000,4.000000,4.000000,4.000000,4.000000,1.000000,4.000000,4.000000,4.000000,2.000000,25.000000
1602278869.613029,58.000000,0.000000,3897.948730,4604.615234,4162.051270,4240.512695,3548.718018,4617.948730,3977.948730,3873.333252,4297.948730,3986.153809,4204.102539,4130.769043,3973.333252,3970.256348,0.000000,4.000000,,,,0.000000,4.000000,4.000000,0.000000,4.000000,4.000000,4.000000,4.000000,4.000000,4.000000,1.000000,4.000000,4.000000,4.000000,2.000000,25.000000
1602278869.620855,59.000000,0.000000,3900.000000,4609.743652,4168.717773,4240.512695,3550.769287,4621.025879,3980.512939,3867.179443,4297.436035,3988.718018,4210.256348,4139.487305,3988.205078,3976.923096,0.000000,4.000000,,,,0.000000,4.000000,4.000000,0.000000,4.000000,4.000000,4.000000,4.000000,4.000000,4.000000,1.000000,4.000000,4.000000,4.000000,2.000000,25.000000
1602278869.628580,60.000000,0.000000,3906.153809,4616.922852,4166.666504,4242.051270,3552.820557,4620.000000,3971.794922,3874.871826,4304.102539,3989.743652,4218.974121,4145.128418,3992.307617,3980.000000,0.000000,4.000000,,,,0.000000,4.000000,4.000000,0.000000,4.000000,4.000000,4.000000,4.000000,4.000000,4.000000,1.000000,4.000000,4.000000,4.000000,2.000000,25.000000
1602278869.636405,61.000000,0.000000,3901.538574,4611.794922,4162.051270,4248.717773,3558.461426,4609.230957,3963.076904,3884.102539,4306.666504,3989.230713,4211.794922,4135.384766,3979.487061,3974.358887,0.000000,4.000000,,,,0.000000,4.000000,4.000000,0.000000,4.000000,4.000000,4.000000,4.000000,4.000000,4.000000,1.000000,4.000000,4.000000,4.000000,2.000000,25.000000
1602278869.644130,62.000000,0.000000,3892.307617,4596.922852,4160.000000,4247.692383,3552.307617,4608.717773,3969.743652,3877.948730,4303.077148,3987.692383,4201.025879,4129.230957,3978.974365,3970.769287,0.000000,4.000000,,,,0.000000,4.000000,4.000000,0.000000,4.000000,4.000000,4.000000,4.000000,4.000000,4.000000,1.000000,4.000000,4.000000,4.000000,2.000000,25.000000
1602278869.651955,63.000000,0.000000,3896.410156,4599.487305,4164.615234,4235.384766,3544.615479,4621.538574,3985.128174,3878.461426,4306.666504,3988.205078,4204.615234,4137.436035,3993.846191,3974.871826,0.000000,4.000000,,,,0.000000,4.000000,4.000000,0.000000,4.000000,4.000000,4.000000,4.000000,4.000000,4.000000,1.000000,4.000000,4.000000,4.000000,2.000000,25.000000
1602278869.659680,64.000000,0.000000,3902.564209,4613.846191,4164.102539,4234.871582,3549.230713,4628.205078,3993.333252,3883.076904,4309.743652,3989.230713,4205.128418,4137.436035,3994.871826,3971.281982,0.000000,4.000000,,,,0.000000,4.000000,4.000000,0.000000,4.000000,4.000000,4.000000,4.000000,4.000000,4.000000,1.000000,4.000000,4.000000,4.000000,2.000000,25.000000
1602278869.667504,65.000000,0.000000,3900.000000,4609.743652,4163.589844,4242.563965,3556.410156,4623.077148,3987.692383,3875.384521,4305.641113,3988.205078,4198.461426,4131.794922,3989.743652,3967.692383,426.000000,4.000000,,,,0.000000,4.000000,4.000000,0.000000,4.000000,4.000000,4.000000,4.000000,4.000000,4.000000,1.000000,4.000000,4.000000,4.000000,2.000000,25.000000
1602278869.675229,66.000000,0.000000,3902.564209,4609.743652,4165.641113,4248.717773,3564.102539,4618.461426,3973.846191,3870.769287,4304.615234,3987.179443,4203.589844,4136.410156,3993.846191,3975.897461,390.000000,4.000000,,,,0.000000,4.000000,4.000000,0.000000,4.000000,4.000000,4.000000,4.000000,4.000000,4.000000,1.000000,4.000000,4.000000,4.000000,2.000000,25.000000
1602278869.683054,67.000000,0.000000,3909.743652,4619.487305,4164.615234,4251.794922,3569.230713,4616.410156,3970.769287,3871.794922,4301.538574,3987.179443,4210.769043,4142.563965,3991.794922,3980.512939,448.000000,4.000000,,,,0.000000,4.000000,4.000000,0.000000,4.000000,4.000000,4.000000,4.000000,4.000000,4.000000,1.000000,4.000000,4.000000,4.000000,2.000000,25.000000
1602278869.690778,68.000000,0.000000,3906.153809,4611.282227,4158.461426,4247.179688,3560.000000,4610.256348,3975.384521,3871.794922,4295.897461,3984.102539,4202.051270,4134.871582,3982.564209,3973.846191,482.000000,4.000000,,,,0.000000,4.000000,4.000000,0.000000,4.000000,4.000000,4.000000,4.000000,4.000000,4.000000,1.000000,4.000000,4.000000,4.000000,2.000000,25.000000
1602278869.698705,69.000000,0.000000,3897.948730,4606.666504,4165.641113,4242.051270,3552.307617,4602.051270,3967.179443,3869.230713,4293.333496,3983.589844,4194.871582,4128.717773,3972.820557,3972.820557,413.000000,4.000000,,,,0.000000,4.000000,4.000000,0.000000,4.000000,4.000000,4.000000,4.000000,4.000000,4.000000,1.000000,4.000000,4.000000,4.000000,2.000000,25.000000
1602278869.706531,70.000000,0.000000,3896.410156,4618.461426,4170.769043,4248.205078,3566.666748,4605.128418,3966.153809,3872.820557,4294.358887,3988.718018,4198.974121,4133.846191,3968.718018,3976.923096,473.000000,4.000000,,,,0.000000,4.000000,4.000000,0.000000,4.000000,4.000000,4.000000,4.000000,4.000000,4.000000,1.000000,4.000000,4.000000,4.000000,2.000000,25.000000
1602278869.714458,71.000000,0.000000,3898.461426,4614.871582,4162.563965,4250.769043,3577.435791,4623.077148,3986.153809,3879.487061,4300.000000,3991.281982,4200.512695,4137.436035,3974.871826,3977.948730,393.000000,4.000000,,,,0.000000,4.000000,4.000000,0.000000,4.000000,4.000000,4.000000,4.000000,4.000000,4.000000,1.000000,4.000000,4.000000,4.000000,2.000000,25.000000
1602278869.722284,72.000000,0.000000,3892.820557,4605.641113,4159.487305,4236.410156,3560.512939,4628.205078,3994.871826,3873.333252,4301.538574,3983.589844,4194.871582,4130.256348,3978.974365,3974.871826,414.000000,4.000000,,,,0.000000,4.000000,4.000000,0.000000,4.000000,4.000000,4.000000,4.000000,4.000000,4.000000,1.000000,4.000000,4.000000,4.000000,2.000000,25.000000
1602278869.730210,73.000000,0.000000,3886.666748,4613.333496,4168.205078,4225.641113,3555.384521,4620.000000,3981.025635,3860.512939,4296.410156,3976.923096,4188.205078,4120.512695,3972.820557,3969.743652,60.000000,4.000000,,,,0.000000,4.000000,4.000000,0.000000,4.000000,4.000000,4.000000,4.000000,4.000000,4.000000,1.000000,4.000000,4.000000,4.000000,2.000000,25.000000
1602278869.738036,74.000000,0.000000,3892.307617,4618.461426,4169.743652,4235.384766,3581.538574,4622.051270,3976.923096,3864.102539,4295.897461,3981.538574,4191.282227,4122.563965,3977.435791,3970.256348,444.000000,4.000000,,,,0.000000,4.000000,4.000000,0.000000,4.000000,4.000000,4.000000,4.000000,4.000000,4.000000,1.000000,4.000000,4.000000,4.000000,2.000000,25.000000
1602278869.745962,75.000000,0.000000,3894.358887,4612.820313,4161.538574,4244.102539,3585.128174,4621.025879,3980.000000,3874.871826,4298.461426,3988.718018,4199.487305,4128.717773,3987.179443,3971.794922,226.000000,4.000000,,,,0.000000,4.000000,4.000000,0.000000,4.000000,4.000000,4.000000,4.000000,4.000000,4.000000,1.000000,4.000000,4.000000,4.000000,2.000000,25.000000
1602278869.753788,76.000000,0.000000,3887.692383,4604.102539,4159.487305,4236.922852,3563.589844,4611.282227,3971.794922,3872.307617,4296.410156,3988.718018,4200.512695,4127.692383,3986.153809,3969.743652,426.000000,4.000000,,,,0.000000,4.000000,4.000000,0.000000,4.000000,4.000000,4.000000,4.000000,4.000000,4.000000,1.000000,4.000000,4.000000,4.000000,2.000000,25.000000
1602278869.761713,77.000000,0.000000,3893.333252,4597.436035,4161.025879,4234.871582,3573.333252,4618.974121,3971.794922,3874.358887,4303.077148,3988.718018,4202.563965,4133.846191,3993.333252,3972.820557,355.000000,4.000000,,,,0.000000,4.000000,4.000000,0.000000,4.000000,4.000000,4.000000,4.000000,4.000000,4.000000,1.000000,4.000000,4.000000,4.000000,2.000000,25.000000
1602278869.769539,78.000000,0.000000,3910.256348,4601.025879,4164.615234,4248.717773,3586.666748,4629.230957,3978.974365,3886.666748,4313.846191,3989.230713,4207.692383,4146.153809,3994.871826,3982.051270,444.000000,4.000000,,,,0.000000,4.000000,4.000000,0.000000,4.000000,4.000000,4.000000,4.000000,4.000000,4.000000,1.000000,4.000000,4.000000,4.000000,2.000000,25.000000
1602278869.777264,79.000000,0.000000,3910.256348,4611.794922,4165.128418,4249.230957,3571.794922,4616.922852,3971.794922,3882.564209,4307.179688,3986.666748,4201.538574,4142.051270,3976.923096,3980.512939,226.000000,4.000000,,,,0.000000,4.000000,4.000000,0.000000,4.000000,4.000000,4.000000,4.000000,4.000000,4.000000,1.000000,4.000000,4.000000,4.000000,2.000000,25.000000
1602278869.785090,80.000000,0.000000,3897.435791,4617.436035,4166.666504,4236.410156,3569.743652,4605.641113,3962.051270,3870.256348,4291.794922,3985.641113,4186.666504,4129.230957,3969.743652,3972.820557,426.000000,4.000000,,,,0.000000,4.000000,4.000000,0.000000,4.000000,4.000000,4.000000,4.000000,4.000000,4.000000,1.000000,4.000000,4.000000,4.000000,2.000000,25.000000
1602278869.792815,81.000000,0.000000,3892.307617,4612.820313,4166.666504,4237.948730,3585.641113,4608.717773,3962.564209,3867.692383,4286.666504,3984.615479,4182.051270,4127.692383,3974.358887,3969.230713,355.000000,4.000000,,,,0.000000,4.000000,4.000000,0.000000,4.000000,4.000000,4.000000,4.000000,4.000000,4.000000,1.000000,4.000000,4.000000,4.000000,2.000000,25.000000
1602278869.800641,82.000000,0.000000,3894.871826,4608.205078,4167.179688,4240.512695,3589.743652,4610.256348,3967.179443,3870.769287,4291.794922,3981.538574,4186.153809,4131.282227,3974.358887,3973.333252,444.000000,4.000000,,,,0.000000,4.000000,4.000000,0.000000,4.000000,4.000000,4.000000,4.000000,4.000000,4.000000,1.000000,4.000000,4.000000,4.000000,2.000000,25.000000
1602278869.808366,83.000000,0.000000,3894.358887,4603.589844,4162.563965,4231.282227,3585.128174,4610.256348,3969.743652,3870.769287,4296.410156,3982.051270,4186.666504,4129.743652,3973.846191,3974.358887,226.000000,4.000000,,,,0.000000,4.000000,4.000000,0.000000,4.000000,4.000000,4.000000,4.000000,4.000000,4.000000,1.000000,4.000000,4.000000,4.000000,2.000000,25.000000
1602278869.816191,84.000000,0.000000,3894.871826,4601.538574,4164.102539,4236.410156,3586.153809,4613.846191,3974.358887,3869.230713,4295.384766,3986.666748,4187.692383,4130.769043,3975.897461,3973.333252,426.000000,4.000000,,,,0.000000,4.000000,4.000000,0.000000,4.000000,4.000000,4.000000,4.000000,4.000000,4.000000,1.000000,4.000000,4.000000,4.000000,2.000000,25.000000
1602278869.823916,85.000000,0.000000,3896.923096,4603.077148,4166.666504,4252.820313,3585.641113,4616.922852,3975.384521,3871.794922,4294.358887,3988.718018,4190.769043,4132.820313,3973.846191,3972.820557,355.000000,4.000000,,,,0.000000,4.000000,4.000000,0.000000,4.000000,4.000000,4.000000,4.000000,4.000000,4.000000,1.000000,4.000000,4.000000,4.000000,2.000000,25.000000
1602278869.831741,86.000000,0.000000,3891.794922,4594.358887,4165.128418,4245.641113,3578.461426,4615.897461,3969.743652,3872.307617,4291.794922,3984.615479,4185.641113,4123.589844,3966.153809,3968.205078,444.000000,4.000000,,,,0.000000,4.000000,4.000000,0.000000,4.000000,4.000000,4.000000,4.000000,4.000000,4.000000,1.000000,4.000000,4.000000,4.000000,2.000000,25.000000
1602278869.839466,87.000000,0.000000,3885.128174,4584.615234,4161.025879,4231.794922,3573.846191,4608.205078,3958.461426,3866.666748,4288.205078,3981.025635,4174.871582,4112.307617,3957.948730,3962.564209,226.000000,4.000000,,,,0.000000,4.000000,4.000000,0.000000,4.000000,4.000000,4.000000,4.000000,4.000000,4.000000,1.000000,4.000000,4.000000,4.000000,2.000000,25.000000
1602278869.847291,88.000000,0.000000,3885.641113,4593.846191,4160.512695,4243.077148,3582.564209,4602.563965,3954.358887,3861.025635,4290.256348,3983.076904,4178.461426,4118.461426,3962.051270,3966.666748,426.000000,4.000000,,,,0.000000,4.000000,4.000000,0.000000,4.000000,4.000000,4.000000,4.000000,4.000000,4.000000,1.000000,4.000000,4.000000,4.000000,2.000000,25.000000
1602278869.855015,89.000000,0.000000,3888.718018,4610.256348,4161.538574,4252.820313,3593.846191,4605.641113,3963.076904,3866.666748,4296.922852,3984.615479,4194.358887,4132.307617,3976.410156,3974.871826,355.000000,4.000000,,,,0.000000,4.000000,4.000000,0.000000,4.000000,4.000000,4.000000,4.000000,4.000000,4.000000,1.000000,4.000000,4.000000,4.000000,2.000000,25.000000
1602278869.862840,90.000000,0.000000,3889.743652,4613.846191,4159.487305,4247.179688,3596.410156,4614.871582,3971.281982,3873.846191,4302.563965,3984.615479,4199.487305,4136.410156,3984.102539,3974.358887,444.000000,4.000000,,,,0.000000,4.000000,4.000000,0.000000,4.000000,4.000000,4.000000,4.000000,4.000000,4.000000,1.000000,4.000000,4.000000,4.000000,2.000000,25.000000
1602278869.870564,91.000000,0.000000,3891.281982,4602.563965,4161.538574,4245.641113,3598.461426,4616.922852,3975.384521,3869.743652,4299.487305,3988.205078,4197.948730,4137.436035,3985.128174,3973.846191,226.000000,4.000000,,,,0.000000,4.000000,4.000000,0.000000,4.000000,4.000000,4.000000,4.000000,4.000000,4.000000,1.000000,4.000000,4.000000,4.000000,2.000000,25.000000
1602278869.878388,92.000000,0.000000,3891.794922,4597.948730,4164.102539,4250.769043,3601.538574,4614.358887,3982.051270,3869.743652,4295.384766,3989.230713,4198.974121,4137.436035,3985.128174,3974.358887,426.000000,4.000000,,,,0.000000,4.000000,4.000000,0.000000,4.000000,4.000000,4.000000,4.000000,4.000000,4.000000,1.000000,4.000000,4.000000,4.000000,2.000000,25.000000
1602278869.886113,93.000000,0.000000,3890.256348,4604.102539,4163.589844,4247.692383,3598.461426,4615.897461,3978.974365,3870.256348,4294.871582,3984.615479,4191.282227,4131.282227,3977.948730,3971.281982,355.000000,4.000000,,,,0.000000,4.000000,4.000000,0.000000,4.000000,4.000000,4.000000,4.000000,4.000000,4.000000,1.000000,4.000000,4.000000,4.000000,2.000000,25.000000
1602278869.894039,94.000000,0.000000,3888.205078,4599.487305,4162.563965,4242.563965,3595.384521,4618.974121,3971.794922,3869.230713,4293.333496,3981.025635,4183.077148,4125.641113,3969.230713,3966.666748,444.000000,4.000000,,,,0.000000,4.000000,4.000000,0.000000,4.000000,4.000000,4.000000,4.000000,4.000000,4.000000,1.000000,4.000000,4.000000,4.000000,2.000000,25.000000
1602278869.901865,95.000000,0.000000,3888.205078,4590.769043,4165.128418,4247.179688,3591.281982,4618.461426,3977.435791,3874.871826,4295.384766,3982.564209,4187.692383,4128.717773,3962.564209,3967.179443,226.000000,4.000000,,,,0.000000,4.000000,4.000000,0.000000,4.000000,4.000000,4.000000,4.000000,4.000000,4.000000,1.000000,4.000000,4.000000,4.000000,2.000000,25.000000
1602278869.909791,96.000000,0.000000,3887.692383,4595.897461,4162.563965,4245.641113,3590.769287,4610.256348,3974.871826,3879.487061,4299.487305,3983.076904,4185.641113,4128.717773,3957.435791,3968.718018,426.000000,4.000000,,,,0.000000,4.000000,4.000000,0.000000,4.000000,4.000000,4.000000,4.000000,4.000000,4.000000,1.000000,4.000000,4.000000,4.000000,2.000000,25.000000
1602278869.917617,97.000000,0.000000,3888.205078,4600.000000,4164.102539,4240.000000,3602.051270,4601.538574,3961.538574,3878.461426,4299.487305,3981.538574,4181.025879,4125.641113,3964.102539,3969.230713,355.000000,4.000000,,,,0.000000,4.000000,4.000000,0.000000,4.000000,4.000000,4.000000,4.000000,4.000000,4.000000,1.000000,4.000000,4.000000,4.000000,2.000000,25.000000
1602278869.925543,98.000000,0.000000,3895.897461,4607.179688,4165.641113,4249.743652,3612.820557,4608.205078,3967.692383,3875.897461,4300.512695,3983.076904,4197.948730,4136.410156,3980.512939,3973.846191,444.000000,4.000000,,,,0.000000,4.000000,4.000000,0.000000,4.000000,4.000000,4.000000,4.000000,4.000000,4.000000,1.000000,4.000000,4.000000,4.000000,2.000000,25.000000
1602278869.933369,99.000000,0.000000,3909.230713,4625.641113,4166.153809,4270.256348,3615.384521,4626.153809,3984.615479,3880.512939,4310.769043,3988.205078,4213.846191,4151.282227,3992.820557,3983.589844,226.000000,4.000000,,,,0.000000,4.000000,4.000000,0.000000,4.000000,4.000000,4.000000,4.000000,4.000000,4.000000,1.000000,4.000000,4.000000,4.000000,2.000000,25.000000
1602278869.941295,100.000000,0.000000,3913.846191,4626.666504,4164.102539,4270.769043,3618.461426,4631.282227,3984.102539,3888.718018,4320.000000,3989.230713,4209.743652,4150.256348,3999.487061,3982.051270,426.000000,4.000000,,,,0.000000,4.000000,4.000000,0.000000,4.000000,4.000000,4.000000,4.000000,4.000000,4.000000,1.000000,4.000000,4.000000,4.000000,2.000000,25.000000
1602278869.949121,101.000000,0.000000,3908.205078,4611.794922,4162.563965,4254.358887,3615.384521,4626.666504,3976.923096,3890.769287,4320.512695,3987.179443,4208.717773,4144.615234,4007.179443,3976.410156,355.000000,4.000000,,,,0.000000,4.000000,4.000000,0.000000,4.000000,4.000000,4.000000,4.000000,4.000000,4.000000,1.000000,4.000000,4.000000,4.000000,2.000000,25.000000
1602278869.957046,102.000000,0.000000,3901.025635,4606.153809,4162.563965,4255.384766,3608.205078,4621.025879,3976.410156,3882.051270,4315.384766,3989.230713,4216.410156,4149.230957,4005.641113,3980.000000,444.000000,4.000000,,,,0.000000,4.000000,4.000000,0.000000,4.000000,4.000000,4.000000,4.000000,4.000000,4.000000,1.000000,4.000000,4.000000,4.000000,2.000000,25.000000
1602278869.964872,103.000000,0.000000,3892.307617,4594.358887,4166.666504,4263.077148,3613.333252,4606.153809,3970.256348,3874.358887,4305.641113,3990.769287,4209.743652,4148.717773,3993.333252,3982.051270,226.000000,4.000000,,,,0.000000,4.000000,4.000000,0.000000,4.000000,4.000000,4.000000,4.000000,4.000000,4.000000,1.000000,4.000000,4.000000,4.000000,2.000000,25.000000
1602278869.972597,104.000000,0.000000,3886.153809,4578.974121,4165.641113,4251.794922,3617.435791,4602.051270,3967.179443,3872.820557,4300.512695,3987.179443,4193.846191,4135.897461,3987.692383,3972.307617,426.000000,4.000000,,,,0.000000,4.000000,4.000000,0.000000,4.000000,4.000000,4.000000,4.000000,4.000000,4.000000,1.000000,4.000000,4.000000,4.000000,2.000000,25.000000
1602278869.980423,105.000000,0.000000,3884.615479,4590.769043,4157.436035,4242.051270,3609.743652,4616.922852,3975.384521,3869.743652,4298.974121,3985.641113,4193.846191,4132.307617,3992.307617,3968.718018,355.000000,4.000000,,,,0.000000,4.000000,4.000000,0.000000,4.000000,4.000000,4.000000,4.000000,4.000000,4.000000,1.000000,4.000000,4.000000,4.000000,2.000000,25.000000
1602278869.988148,106.000000,0.000000,3887.179443,4610.769043,4160.000000,4250.769043,3617.435791,4618.461426,3977.948730,3870.769287,4300.512695,3988.718018,4203.077148,4136.410156,3992.820557,3974.871826,444.000000,4.000000,,,,0.000000,4.000000,4.000000,0.000000,4.000000,4.000000,4.000000,4.000000,4.000000,4.000000,1.000000,4.000000,4.000000,4.000000,2.000000,25.000000
1602278869.995973,107.000000,0.000000,3885.128174,4606.666504,4166.666504,4254.871582,3632.820557,4614.358887,3980.000000,3875.384521,4307.692383,3988.718018,4201.025879,4133.846191,3990.256348,3973.333252,226.000000,4.000000,,,,0.000000,4.000000,4.000000,0.000000,4.000000,4.000000,4.000000,4.000000,4.000000,4.000000,1.000000,4.000000,4.000000,4.000000,2.000000,25.000000
1602278870.003698,108.000000,0.000000,3887.692383,4605.128418,4164.615234,4257.948730,3632.307617,4629.230957,3987.692383,3884.615479,4316.922852,3988.205078,4202.051270,4136.922852,3992.820557,3971.794922,426.000000,4.000000,,,,0.000000,4.000000,4.000000,0.000000,4.000000,4.000000,4.000000,4.000000,4.000000,4.000000,1.000000,4.000000,4.000000,4.000000,2.000000,25.000000
1602278870.011523,109.000000,0.000000,3901.538574,4626.153809,4160.000000,4272.820313,3634.358887,4637.436035,3985.641113,3894.358887,4325.641113,3993.846191,4215.384766,4149.230957,4000.000000,3978.461426,355.000000,4.000000,,,,0.000000,4.000000,4.000000,0.000000,4.000000,4.000000,4.000000,4.000000,4.000000,4.000000,1.000000,4.000000,4.000000,4.000000,2.000000,25.000000
1602278870.019248,110.000000,0.000000,3910.256348,4630.769043,4164.102539,4280.000000,3631.794922,4623.077148,3977.435791,3889.743652,4326.666504,3993.846191,4217.948730,4149.230957,4004.615479,3981.538574,444.000000,4.000000,,,,0.000000,4.000000,4.000000,0.000000,4.000000,4.000000,4.000000,4.000000,4.000000,4.000000,1.000000,4.000000,4.000000,4.000000,2.000000,25.000000
1602278870.027073,111.000000,0.000000,3908.205078,4609.230957,4165.641113,4278.974121,3619.487061,4622.563965,3981.538574,3879.487061,4320.000000,3988.205078,4212.307617,4140.000000,4006.153809,3974.358887,226.000000,4.000000,,,,0.000000,4.000000,4.000000,0.000000,4.000000,4.000000,4.000000,4.000000,4.000000,4.000000,1.000000,4.000000,4.000000,4.000000,2.000000,25.000000
1602278870.034797,112.000000,0.000000,3900.512939,4594.871582,4163.589844,4274.358887,3628.718018,4622.051270,3978.974365,3871.794922,4306.153809,3987.692383,4204.102539,4136.922852,3998.461426,3969.743652,426.000000,4.000000,,,,0.000000,4.000000,4.000000,0.000000,4.000000,4.000000,4.000000,4.000000,4.000000,4.000000,1.000000,4.000000,4.000000,4.000000,2.000000,25.000000
1602278870.042724,113.000000,0.000000,3891.794922,4599.487305,4162.563965,4264.102539,3646.666748,4607.692383,3966.153809,3860.512939,4291.282227,3988.718018,4189.230957,4129.743652,3982.564209,3966.153809,355.000000,4.000000,,,,0.000000,4.000000,4.000000,0.000000,4.000000,4.000000,4.000000,4.000000,4.000000,4.000000,1.000000,4.000000,4.000000,4.000000,2.000000,25.000000
1602278870.050551,114.000000,0.000000,3891.281982,4609.743652,4163.077148,4260.512695,3640.512939,4612.820313,3967.692383,3860.000000,4289.743652,3984.615479,4190.256348,4123.077148,3979.487061,3963.076904,444.000000,4.000000,,,,0.000000,4.000000,4.000000,0.000000,4.000000,4.000000,4.000000,4.000000,4.000000,4.000000,1.000000,4.000000,4.000000,4.000000,2.000000,25.000000
1602278870.058378,115.000000,0.000000,3893.333252,4611.794922,4160.512695,4267.692383,3629.743652,4631.794922,3977.435791,3874.871826,4305.128418,3985.641113,4204.615234,4126.666504,3988.205078,3963.589844,226.000000,4.000000,,,,0.000000,4.000000,4.000000,0.000000,4.000000,4.000000,4.000000,4.000000,4.000000,4.000000,1.000000,4.000000,4.000000,4.000000,2.000000,25.000000
1602278870.066102,116.000000,0.000000,3890.769287,4605.128418,4163.589844,4265.128418,3634.358887,4633.846191,3987.179443,3882.564209,4316.922852,3994.358887,4206.666504,4132.307617,3991.281982,3967.692383,426.000000,4.000000,,,,0.000000,4.000000,4.000000,0.000000,4.000000,4.000000,4.000000,4.000000,4.000000,4.000000,1.000000,4.000000,4.000000,4.000000,2.000000,25.000000
1602278870.074029,117.000000,0.000000,3891.794922,4599.487305,4165.128418,4251.282227,3643.589844,4632.820313,3993.846191,3884.102539,4321.538574,3998.461426,4208.717773,4138.974121,3994.871826,3973.333252,355.000000,4.000000,,,,0.000000,4.000000,4.000000,0.000000,4.000000,4.000000,4.000000,4.000000,4.000000,4.000000,1.000000,4.000000,4.000000,4.000000,2.000000,25.000000
1602278870.081855,118.000000,0.000000,3897.948730,4595.384766,4166.153809,4242.563965,3644.102539,4636.410156,3992.820557,3897.948730,4333.846191,3998.461426,4221.538574,4149.230957,4003.589844,3981.025635,444.000000,4.000000,,,,0.000000,4.000000,4.000000,0.000000,4.000000,4.000000,4.000000,4.000000,4.000000,4.000000,1.000000,4.000000,4.000000,4.000000,2.000000,25.000000
1602278870.089781,119.000000,0.000000,3901.538574,4594.358887,4167.179688,4241.025879,3636.923096,4632.307617,3993.846191,3903.589844,4336.410156,4000.000000,4229.230957,4153.333496,4009.743652,3985.641113,226.000000,4.000000,,,,0.000000,4.000000,4.000000,0.000000,4.000000,4.000000,4.000000,4.000000,4.000000,4.000000,1.000000,4.000000,4.000000,4.000000,2.000000,25.000000
1602278870.097607,120.000000,0.000000,3904.102539,4594.358887,4165.128418,4237.948730,3636.923096,4624.102539,3998.974365,3893.846191,4322.563965,3997.948730,4225.128418,4148.205078,4011.281982,3981.538574,426.000000,4.000000,,,,0.000000,4.000000,4.000000,0.000000,4.000000,4.000000,4.000000,4.000000,4.000000,4.000000,1.000000,4.000000,4.000000,4.000000,2.000000,25.000000
1602278870.105533,121.000000,0.000000,3902.564209,4594.358887,4164.102539,4229.743652,3644.615479,4620.000000,3995.897461,3892.820557,4316.922852,3994.871826,4222.051270,4141.538574,4011.794922,3975.384521,355.000000,4.000000,,,,0.000000,4.000000,4.000000,0.000000,4.000000,4.000000,4.000000,4.000000,4.000000,4.000000,1.000000,4.000000,4.000000,4.000000,2.000000,25.000000
1602278870.113359,122.000000,0.000000,3894.871826,4603.077148,4166.153809,4233.846191,3646.666748,4626.666504,3988.205078,3894.358887,4314.871582,3995.384521,4223.077148,4136.410156,4006.153809,3974.358887,444.000000,4.000000,,,,0.000000,4.000000,4.000000,0.000000,4.000000,4.000000,4.000000,4.000000,4.000000,4.000000,1.000000,4.000000,4.000000,4.000000,2.000000,25.000000
1602278870.121284,123.000000,0.000000,3894.871826,4618.461426,4165.641113,4247.179688,3649.230713,4634.871582,3990.256348,3882.051270,4305.128418,3994.358887,4218.974121,4134.871582,3992.307617,3977.435791,226.000000,4.000000,,,,0.000000,4.000000,4.000000,0.000000,4.000000,4.000000,4.000000,4.000000,4.000000,4.000000,1.000000,4.000000,4.000000,4.000000,2.000000,25.000000
1602278870.129110,124.000000,0.000000,3901.025635,4624.615234,4163.589844,4250.256348,3658.974365,4632.307617,3992.820557,3874.871826,4298.974121,3988.718018,4215.897461,4138.974121,3987.179443,3979.487061,426.000000,4.000000,,,,0.000000,4.000000,4.000000,0.000000,4.000000,4.000000,4.000000,4.000000,4.000000,4.000000,1.000000,4.000000,4.000000,4.000000,2.000000,25.000000
1602278870.137035,125.000000,0.000000,3902.564209,4623.077148,4166.153809,4248.717773,3667.179443,4632.820313,3986.666748,3881.538574,4304.102539,3988.205078,4217.948730,4144.615234,3995.384521,3978.974365,355.000000,4.000000,,,,0.000000,4.000000,4.000000,0.000000,4.000000,4.000000,4.000000,4.000000,4.000000,4.000000,1.000000,4.000000,4.000000,4.000000,2.000000,25.000000
1602278870.144861,126.000000,0.000000,3899.487061,4626.666504,4167.692383,4249.230957,3671.794922,4633.846191,3980.512939,3878.974365,4307.179688,3990.256348,4217.948730,4141.025879,4003.076904,3972.307617,444.000000,4.000000,,,,0.000000,4.000000,4.000000,0.000000,4.000000,4.000000,4.000000,4.000000,4.000000,4.000000,1.000000,4.000000,4.000000,4.000000,2.000000,25.000000
1602278870.152586,127.000000,0.000000,3895.897461,4623.589844,4166.666504,4241.538574,3672.307617,4622.563965,3974.358887,3864.102539,4295.384766,3989.743652,4205.641113,4131.282227,3991.794922,3968.205078,226.000000,4.000000,,,,0.000000,4.000000,4.000000,0.000000,4.000000,4.000000,4.000000,4.000000,4.000000,4.000000,1.000000,4.000000,4.000000,4.000000,2.000000,25.000000
1602278870.160412,128.000000,0.000000,3889.743652,4610.256348,4162.051270,4233.846191,3667.692383,4615.384766,3971.794922,3857.948730,4283.589844,3989.743652,4199.487305,4125.641113,3971.794922,3967.692383,426.000000,4.000000,,,,0.000000,4.000000,4.000000,0.000000,4.000000,4.000000,4.000000,4.000000,4.000000,4.000000,1.000000,4.000000,4.000000,4.000000,2.000000,25.000000
1602278870.168137,0.000000,0.000000,3884.102539,4599.487305,4163.077148,4235.897461,3658.974365,4612.307617,3969.743652,3861.538574,4290.769043,3987.692383,4203.077148,4126.153809,3967.692383,3965.641113,0.000000,4.000000,,,,0.000000,4.000000,4.000000,0.000000,4.000000,4.000000,4.000000,4.000000,4.000000,4.000000,1.000000,4.000000,4.000000,4.000000,2.000000,25.000000
1602278870.175962,1.000000,0.000000,3887.179443,4593.846191,4163.589844,4235.384766,3647.692383,4604.615234,3965.641113,3867.179443,4301.538574,3988.205078,4206.666504,4132.820313,3985.641113,3968.205078,426.000000,4.000000,,,,0.000000,4.000000,4.000000,0.000000,4.000000,4.000000,4.000000,4.000000,4.000000,4.000000,1.000000,4.000000,4.000000,4.000000,2.000000,25.000000
1602278870.183687,2.000000,0.000000,3902.051270,4594.358887,4164.615234,4230.256348,3655.897461,4615.897461,3976.923096,3877.948730,4304.615234,3997.435791,4217.948730,4148.205078,4012.307617,3980.000000,390.000000,4.000000,,,,0.000000,4.000000,4.000000,0.000000,4.000000,4.000000,4.000000,4.000000,4.000000,4.000000,1.000000,4.000000,4.000000,4.000000,2.000000,25.000000
1602278870.191512,3.000000,0.000000,3911.794922,4598.974121,4165.641113,4231.282227,3675.384521,4633.333496,3994.871826,3889.230713,4313.846191,4003.589844,4231.794922,4158.974121,4024.102539,3985.128174,448.000000,4.000000,,,,0.000000,4.000000,4.000000,0.000000,4.000000,4.000000,4.000000,4.000000,4.000000,4.000000,1.000000,4.000000,4.000000,4.000000,2.000000,25.000000
1602278870.199237,4.000000,0.000000,3904.615479,4602.563965,4167.179688,4232.820313,3662.564209,4626.153809,3989.743652,3884.615479,4316.410156,4001.025635,4229.230957,4152.820313,4015.897461,3980.000000,482.000000,4.000000,,,,0.000000,4.000000,4.000000,0.000000,4.000000,4.000000,4.000000,4.000000,4.000000,4.000000,1.000000,4.000000,4.000000,4.000000,2.000000,25.000000
1602278870.207062,5.000000,0.000000,3891.794922,4602.563965,4164.615234,4229.743652,3636.410156,4614.358887,3970.769287,3871.281982,4300.000000,3999.487061,4217.948730,4143.077148,4003.076904,3974.871826,413.000000,4.000000,,,,0.000000,4.000000,4.000000,0.000000,4.000000,4.000000,4.000000,4.000000,4.000000,4.000000,1.000000,4.000000,4.000000,4.000000,2.000000,25.000000
1602278870.214787,6.000000,0.000000,3891.281982,4605.641113,4161.538574,4229.230957,3645.641113,4613.333496,3965.641113,3866.666748,4290.769043,3997.948730,4214.871582,4142.051270,3999.487061,3974.358887,473.000000,4.000000,,,,0.000000,4.000000,4.000000,0.000000,4.000000,4.000000,4.000000,4.000000,4.000000,4.000000,1.000000,4.000000,4.000000,4.000000,2.000000,25.000000
1602278870.222611,7.000000,0.000000,3896.923096,4610.769043,4163.589844,4236.922852,3667.692383,4611.282227,3967.692383,3870.256348,4294.871582,3994.358887,4206.666504,4140.000000,3995.897461,3972.820557,393.000000,4.000000,,,,0.000000,4.000000,4.000000,0.000000,4.000000,4.000000,4.000000,4.000000,4.000000,4.000000,1.000000,4.000000,4.000000,4.000000,2.000000,25.000000
1602278870.230336,8.000000,0.000000,3895.897461,4606.666504,4163.589844,4242.563965,3666.153809,4610.256348,3968.718018,3871.281982,4297.436035,3990.769287,4196.410156,4133.333496,3979.487061,3968.718018,414.000000,4.000000,,,,0.000000,4.000000,4.000000,0.000000,4.000000,4.000000,4.000000,4.000000,4.000000,4.000000,1.000000,4.000000,4.000000,4.000000,2.000000,25.000000
1602278870.238160,9.000000,0.000000,3893.846191,4604.615234,4161.538574,4238.974121,3656.923096,4613.333496,3973.333252,3869.743652,4295.897461,3992.820557,4199.487305,4134.358887,3975.384521,3970.256348,60.000000,4.000000,,,,0.000000,4.000000,4.000000,0.000000,4.000000,4.000000,4.000000,4.000000,4.000000,4.000000,1.000000,4.000000,4.000000,4.000000,2.000000,25.000000
1602278870.245884,10.000000,0.000000,3895.384521,4614.871582,4162.563965,4235.384766,3661.538574,4612.307617,3970.769287,3870.256348,4291.794922,3994.358887,4200.512695,4138.461426,3992.820557,3975.384521,444.000000,4.000000,,,,0.000000,4.000000,4.000000,0.000000,4.000000,4.000000,4.000000,4.000000,4.000000,4.000000,1.000000,4.000000,4.000000,4.000000,2.000000,25.000000
1602278870.253811,11.000000,0.000000,3902.051270,4623.077148,4166.153809,4241.025879,3671.281982,4614.871582,3967.179443,3867.179443,4292.307617,3993.333252,4205.128418,4142.563965,4009.743652,3981.025635,227.000000,4.000000,,,,0.000000,4.000000,4.000000,0.000000,4.000000,4.000000,4.000000,4.000000,4.000000,4.000000,1.000000,4.000000,4.000000,4.000000,2.000000,25.000000
1602278870.261637,12.000000,0.000000,3911.281982,4620.000000,4164.615234,4245.641113,3670.769287,4617.948730,3969.230713,3866.153809,4295.897461,3995.897461,4215.384766,4148.205078,4009.230713,3983.076904,426.000000,4.000000,,,,0.000000,4.000000,4.000000,0.000000,4.000000,4.000000,4.000000,4.000000,4.000000,4.000000,1.000000,4.000000,4.000000,4.000000,2.000000,25.000000
1602278870.269563,13.000000,0.000000,3907.692383,4607.692383,4165.128418,4238.974121,3663.589844,4605.128418,3960.512939,3865.128174,4289.230957,3995.384521,4209.743652,4144.615234,4001.538574,3978.461426,355.000000,4.000000,,,,0.000000,4.000000,4.000000,0.000000,4.000000,4.000000,4.000000,4.000000,4.000000,4.000000,1.000000,4.000000,4.000000,4.000000,2.000000,25.000000
1602278870.277389,14.000000,0.000000,3893.333252,4599.487305,4165.641113,4231.794922,3669.743652,4596.410156,3953.333252,3860.000000,4282.051270,3989.230713,4201.538574,4136.410156,3998.461426,3972.820557,444.000000,4.000000,,,,0.000000,4.000000,4.000000,0.000000,4.000000,4.000000,4.000000,4.000000,4.000000,4.000000,1.000000,4.000000,4.000000,4.000000,2.000000,25.000000
1602278870.285315,15.000000,0.000000,3894.871826,4602.563965,4162.051270,4235.897461,3677.435791,4613.333496,3971.281982,3866.153809,4292.820313,3989.230713,4210.769043,4141.025879,3996.410156,3976.410156,227.000000,4.000000,,,,0.000000,4.000000,4.000000,0.000000,4.000000,4.000000,4.000000,4.000000,4.000000,4.000000,1.000000,4.000000,4.000000,4.000000,2.000000,25.000000
1602278870.293141,16.000000,0.000000,3903.589844,4604.102539,4161.025879,4242.051270,3667.179443,4626.666504,3987.179443,3878.974365,4304.102539,3996.923096,4213.846191,4148.205078,3994.871826,3981.025635,0.000000,4.000000,,,,0.000000,4.000000,4.000000,0.000000,4.000000,4.000000,4.000000,4.000000,4.000000,4.000000,1.000000,4.000000,4.000000,4.000000,2.000000,25.000000
1602278870.301067,17.000000,0.000000,3905.128174,4596.922852,4168.205078,4238.461426,3661.538574,4613.333496,3978.974365,3875.384521,4300.512695,4000.512939,4204.615234,4144.615234,3997.435791,3980.512939,0.000000,4.000000,,,,0.000000,4.000000,4.000000,0.000000,4.000000,4.000000,4.000000,4.000000,4.000000,4.000000,1.000000,4.000000,4.000000,4.000000,2.000000,25.000000
1602278870.308893,18.000000,0.000000,3906.153809,4595.384766,4167.179688,4237.948730,3671.281982,4606.153809,3972.820557,3868.205078,4301.025879,3996.923096,4207.692383,4143.077148,4004.102539,3977.948730,0.000000,4.000000,,,,0.000000,4.000000,4.000000,0.000000,4.000000,4.000000,4.000000,4.000000,4.000000,4.000000,1.000000,4.000000,4.000000,4.000000,2.000000,25.000000
1602278870.316818,19.000000,0.000000,3907.179443,4607.179688,4165.128418,4248.717773,3677.435791,4622.051270,3977.948730,3876.410156,4307.179688,3996.923096,4212.307617,4148.205078,4005.128174,3976.923096,0.000000,4.000000,,,,0.000000,4.000000,4.000000,0.000000,4.000000,4.000000,4.000000,4.000000,4.000000,4.000000,1.000000,4.000000,4.000000,4.000000,2.000000,25.000000
1602278870.324644,20.000000,0.000000,3901.025635,4618.461426,4168.717773,4253.333496,3682.051270,4632.307617,3981.025635,3880.512939,4305.128418,4000.000000,4208.205078,4147.692383,4000.512939,3975.897461,0.000000,4.000000,,,,0.000000,4.000000,4.000000,0.000000,4.000000,4.000000,4.000000,4.000000,4.000000,4.000000,1.000000,4.000000,4.000000,4.000000,2.000000,25.000000
1602278870.332369,21.000000,0.000000,3897.435791,4618.461426,4168.205078,4246.666504,3687.179443,4618.974121,3977.948730,3876.923096,4300.512695,3998.461426,4205.128418,4136.922852,3991.281982,3974.358887,0.000000,4.000000,,,,0.000000,4.000000,4.000000,0.000000,4.000000,4.000000,4.000000,4.000000,4.000000,4.000000,1.000000,4.000000,4.000000,4.000000,2.000000,25.000000
1602278870.340195,22.000000,0.000000,3898.461426,4613.333496,4162.563965,4242.563965,3691.794922,4605.641113,3969.743652,3876.923096,4298.461426,3992.820557,4199.487305,4127.692383,3982.051270,3970.256348,0.000000,4.000000,,,,0.000000,4.000000,4.000000,0.000000,4.000000,4.000000,4.000000,4.000000,4.000000,4.000000,1.000000,4.000000,4.000000,4.000000,2.000000,25.000000
1602278870.347920,23.000000,0.000000,3897.948730,4617.436035,4164.102539,4246.153809,3697.435791,4613.846191,3966.153809,3875.897461,4296.410156,3993.846191,4197.948730,4132.307617,3986.153809,3974.871826,0.000000,4.000000,,,,0.000000,4.000000,4.000000,0.000000,4.000000,4.000000,4.000000,4.000000,4.000000,4.000000,1.000000,4.000000,4.000000,4.000000,2.000000,25.000000
1602278870.355745,24.000000,0.000000,3904.102539,4632.307617,4165.128418,4249.230957,3698.461426,4630.769043,3977.948730,3875.384521,4301.025879,4000.000000,4213.846191,4145.641113,4003.076904,3986.153809,0.000000,4.000000,,,,0.000000,4.000000,4.000000,0.000000,4.000000,4.000000,4.000000,4.000000,4.000000,4.000000,1.000000,4.000000,4.000000,4.000000,2.000000,25.000000
1602278870.363470,25.000000,0.000000,3911.794922,4635.897461,4162.051270,4251.794922,3695.897461,4635.897461,3986.153809,3881.538574,4314.358887,4004.102539,4231.794922,4152.820313,4019.487061,3989.743652,0.000000,4.000000,,,,0.000000,4.000000,4.000000,0.000000,4.000000,4.000000,4.000000,4.000000,4.000000,4.000000,1.000000,4.000000,4.000000,4.000000,2.000000,25.000000
1602278870.371295,26.000000,0.000000,3908.205078,4627.179688,4162.051270,4250.256348,3695.384521,4625.641113,3978.461426,3882.564209,4315.384766,4004.615479,4226.666504,4149.230957,4022.051270,3982.051270,0.000000,4.000000,,,,0.000000,4.000000,4.000000,0.000000,4.000000,4.000000,4.000000,4.000000,4.000000,4.000000,1.000000,4.000000,4.000000,4.000000,2.000000,25.000000
1602278870.379020,27.000000,0.000000,3902.051270,4624.102539,4165.641113,4250.769043,3693.846191,4619.487305,3975.384521,3877.435791,4306.153809,4003.076904,4212.307617,4141.538574,4015.897461,3975.897461,0.000000,4.000000,,,,0.000000,4.000000,4.000000,0.000000,4.000000,4.000000,4.000000,4.000000,4.000000,4.000000,1.000000,4.000000,4.000000,4.000000,2.000000,25.000000
1602278870.386844,28.000000,0.000000,3902.051270,4621.025879,4165.128418,4247.692383,3697.948730,4626.666504,3980.000000,3880.000000,4311.282227,4002.051270,4209.743652,4141.025879,4007.692383,3976.410156,0.000000,4.000000,,,,0.000000,4.000000,4.000000,0.000000,4.000000,4.000000,4.000000,4.000000,4.000000,4.000000,1.000000,4.000000,4.000000,4.000000,2.000000,25.000000
1602278870.394569,29.000000,0.000000,3898.974365,4610.256348,4162.051270,4236.410156,3702.564209,4628.717773,3980.512939,3885.641113,4319.487305,4003.589844,4213.846191,4141.538574,4000.000000,3978.974365,0.000000,4.000000,,,,0.000000,4.000000,4.000000,0.000000,4.000000,4.000000,4.000000,4.000000,4.000000,4.000000,1.000000,4.000000,4.000000,4.000000,2.000000,25.000000
1602278870.402393,30.000000,0.000000,3892.307617,4608.205078,4165.641113,4228.717773,3695.897461,4618.974121,3977.435791,3882.051270,4311.282227,4003.589844,4211.282227,4137.948730,4001.025635,3980.512939,0.000000,4.000000,,,,0.000000,4.000000,4.000000,0.000000,4.000000,4.000000,4.000000,4.000000,4.000000,4.000000,1.000000,4.000000,4.000000,4.000000,2.000000,25.000000
1602278870.410118,31.000000,0.000000,3897.435791,4613.333496,4167.179688,4234.871582,3693.846191,4610.769043,3968.718018,3875.384521,4303.589844,4003.589844,4210.256348,4139.487305,4011.281982,3980.512939,0.000000,4.000000,,,,0.000000,4.000000,4.000000,0.000000,4.000000,4.000000,4.000000,4.000000,4.000000,4.000000,1.000000,4.000000,4.000000,4.000000,2.000000,25.000000
1602278870.417942,32.000000,0.000000,3905.641113,4610.769043,4164.102539,4242.051270,3694.358887,4610.256348,3962.564209,3873.846191,4305.641113,4004.102539,4217.948730,4145.641113,4018.461426,3983.076904,0.000000,4.000000,,,,0.000000,4.000000,4.000000,0.000000,4.000000,4.000000,4.000000,4.000000,4.000000,4.000000,1.000000,4.000000,4.000000,4.000000,2.000000,25.000000
1602278870.425667,33.000000,0.000000,3904.615479,4608.717773,4161.025879,4242.563965,3691.281982,4608.717773,3968.718018,3875.384521,4305.641113,4003.589844,4220.512695,4148.205078,4016.923096,3982.051270,0.000000,4.000000,,,,0.000000,4.000000,4.000000,0.000000,4.000000,4.000000,4.000000,4.000000,4.000000,4.000000,1.000000,4.000000,4.000000,4.000000,2.000000,25.000000
1602278870.433593,34.000000,0.000000,3906.666748,4612.820313,4164.615234,4245.128418,3703.076904,4613.846191,3981.025635,3877.948730,4305.128418,4005.128174,4218.974121,4149.743652,4013.846191,3982.051270,0.000000,4.000000,,,,0.000000,4.000000,4.000000,0.000000,4.000000,4.000000,4.000000,4.000000,4.000000,4.000000,1.000000,4.000000,4.000000,4.000000,2.000000,25.000000
1602278870.441419,35.000000,0.000000,3910.769287,4610.256348,4165.641113,4250.769043,3716.410156,4625.128418,3985.641113,3877.435791,4304.102539,4004.102539,4219.487305,4151.794922,4007.179443,3981.538574,0.000000,4.000000,,,,0.000000,4.000000,4.000000,0.000000,4.000000,4.000000,4.000000,4.000000,4.000000,4.000000,1.000000,4.000000,4.000000,4.000000,2.000000,25.000000
1602278870.449345,36.000000,0.000000,3902.564209,4602.563965,4163.589844,4243.077148,3704.102539,4624.615234,3980.000000,3874.358887,4300.000000,3997.948730,4209.230957,4145.641113,4000.512939,3978.974365,0.000000,4.000000,,,,0.000000,4.000000,4.000000,0.000000,4.000000,4.000000,4.000000,4.000000,4.000000,4.000000,1.000000,4.000000,4.000000,4.000000,2.000000,25.000000
1602278870.457171,37.000000,0.000000,3893.333252,4610.256348,4162.563965,4235.384766,3695.897461,4618.974121,3979.487061,3880.000000,4304.102539,3996.923096,4199.487305,4136.410156,4005.128174,3974.871826,0.000000,4.000000,,,,0.000000,4.000000,4.000000,0.000000,4.000000,4.000000,4.000000,4.000000,4.000000,4.000000,1.000000,4.000000,4.000000,4.000000,2.000000,25.000000
1602278870.465109,38.000000,0.000000,3893.333252,4626.153809,4166.666504,4242.563965,3703.589844,4619.487305,3983.076904,3881.025635,4309.743652,3997.948730,4200.512695,4133.333496,4003.589844,3974.358887,0.000000,4.000000,,,,0.000000,4.000000,4.000000,0.000000,4.000000,4.000000,4.000000,4.000000,4.000000,4.000000,1.000000,4.000000,4.000000,4.000000,2.000000,25.000000
1602278870.472947,39.000000,0.000000,3898.461426,4629.230957,4166.666504,4249.743652,3704.102539,4618.461426,3979.487061,3867.692383,4300.512695,3993.333252,4200.512695,4138.461426,3991.281982,3977.948730,0.000000,4.000000,,,,0.000000,4.000000,4.000000,0.000000,4.000000,4.000000,4.000000,4.000000,4.000000,4.000000,1.000000,4.000000,4.000000,4.000000,2.000000,25.000000
1602278870.480785,40.000000,0.000000,3903.076904,4620.512695,4163.077148,4247.179688,3703.589844,4611.282227,3965.641113,3858.974365,4289.230957,3992.307617,4204.102539,4144.615234,3989.230713,3980.512939,0.000000,4.000000,,,,0.000000,4.000000,4.000000,0.000000,4.000000,4.000000,4.000000,4.000000,4.000000,4.000000,1.000000,4.000000,4.000000,4.000000,2.000000,25.000000
1602278870.488623,41.000000,0.000000,3906.153809,4613.333496,4164.615234,4244.615234,3712.307617,4606.153809,3961.025635,3865.128174,4292.307617,3997.948730,4210.769043,4146.153809,3997.435791,3980.512939,0.000000,4.000000,,,,0.000000,4.000000,4.000000,0.000000,4.000000,4.000000,4.000000,4.000000,4.000000,4.000000,1.000000,4.000000,4.000000,4.000000,2.000000,25.000000
1602278870.496461,42.000000,0.000000,3905.641113,4614.871582,4165.641113,4244.615234,3720.512939,4610.769043,3973.846191,3877.948730,4308.717773,4001.538574,4212.307617,4148.717773,4004.615479,3980.512939,0.000000,4.000000,,,,0.000000,4.000000,4.000000,0.000000,4.000000,4.000000,4.000000,4.000000,4.000000,4.000000,1.000000,4.000000,4.000000,4.000000,2.000000,25.000000
1602278870.504299,43.000000,0.000000,3898.974365,4619.487305,4162.051270,4241.025879,3716.923096,4620.512695,3982.051270,3880.000000,4316.410156,4003.076904,4215.897461,4147.179688,4009.230713,3978.974365,0.000000,4.000000,,,,0.000000,4.000000,4.000000,0.000000,4.000000,4.000000,4.000000,4.000000,4.000000,4.000000,1.000000,4.000000,4.000000,4.000000,2.000000,25.000000
1602278870.512137,44.000000,0.000000,3890.769287,4623.589844,4161.025879,4243.077148,3706.153809,4627.179688,3981.025635,3876.923096,4308.205078,4003.589844,4216.922852,4140.512695,4012.820557,3973.333252,0.000000,4.000000,,,,0.000000,4.000000,4.000000,0.000000,4.000000,4.000000,4.000000,4.000000,4.000000,4.000000,1.000000,4.000000,4.000000,4.000000,2.000000,25.000000
1602278870.520060,45.000000,0.000000,3894.358887,4619.487305,4166.153809,4246.666504,3701.025635,4619.487305,3979.487061,3877.948730,4303.589844,4002.051270,4208.717773,4141.025879,4013.333252,3972.820557,0.000000,4.000000,,,,0.000000,4.000000,4.000000,0.000000,4.000000,4.000000,4.000000,4.000000,4.000000,4.000000,1.000000,4.000000,4.000000,4.000000,2.000000,25.000000
1602278870.527785,46.000000,0.000000,3906.153809,4620.512695,4166.153809,4248.717773,3704.615479,4613.846191,3980.512939,3879.487061,4305.128418,4002.051270,4208.717773,4147.179688,4014.871826,3980.000000,0.000000,4.000000,,,,0.000000,4.000000,4.000000,0.000000,4.000000,4.000000,4.000000,4.000000,4.000000,4.000000,1.000000,4.000000,4.000000,4.000000,2.000000,25.000000
1602278870.535610,47.000000,0.000000,3907.179443,4623.077148,4166.666504,4252.307617,3709.230713,4619.487305,3977.948730,3880.512939,4303.077148,4004.102539,4220.000000,4147.692383,4016.923096,3984.615479,0.000000,4.000000,,,,0.000000,4.000000,4.000000,0.000000,4.000000,4.000000,4.000000,4.000000,4.000000,4.000000,1.000000,4.000000,4.000000,4.000000,2.000000,25.000000
1602278870.543335,48.000000,0.000000,3892.820557,4606.666504,4164.615234,4248.205078,3715.897461,4615.384766,3974.871826,3877.435791,4300.000000,4003.076904,4216.410156,4142.051270,4006.666748,3976.923096,0.000000,4.000000,,,,0.000000,4.000000,4.000000,0.000000,4.000000,4.000000,4.000000,4.000000,4.000000,4.000000,1.000000,4.000000,4.000000,4.000000,2.000000,25.000000
1602278870.551160,49.000000,0.000000,3887.179443,4591.794922,4163.077148,4242.051270,3726.666748,4611.794922,3976.410156,3871.281982,4299.487305,4002.564209,4204.102539,4142.051270,3997.435791,3973.846191,0.000000,4.000000,,,,0.000000,4.000000,4.000000,0.000000,4.000000,4.000000,4.000000,4.000000,4.000000,4.000000,1.000000,4.000000,4.000000,4.000000,2.000000,25.000000
1602278870.558885,50.000000,0.000000,3890.769287,4608.205078,4162.051270,4244.102539,3721.538574,4621.538574,3979.487061,3870.256348,4298.974121,4002.564209,4207.179688,4144.615234,4008.718018,3976.410156,0.000000,4.000000,,,,0.000000,4.000000,4.000000,0.000000,4.000000,4.000000,4.000000,4.000000,4.000000,4.000000,1.000000,4.000000,4.000000,4.000000,2.000000,25.000000
1602278870.566710,51.000000,0.000000,3887.692383,4628.205078,4163.589844,4246.153809,3702.564209,4608.717773,3974.358887,3869.743652,4292.820313,3995.897461,4203.589844,4136.410156,4011.281982,3973.333252,0.000000,4.000000,,,,0.000000,4.000000,4.000000,0.000000,4.000000,4.000000,4.000000,4.000000,4.000000,4.000000,1.000000,4.000000,4.000000,4.000000,2.000000,25.000000
1602278870.574435,52.000000,0.000000,3884.615479,4618.974121,4163.077148,4247.692383,3703.589844,4589.230957,3970.769287,3863.589844,4284.615234,3988.718018,4184.615234,4127.179688,3994.358887,3970.769287,0.000000,4.000000,,,,0.000000,4.000000,4.000000,0.000000,4.000000,4.000000,4.000000,4.000000,4.000000,4.000000,1.000000,4.000000,4.000000,4.000000,2.000000,25.000000
1602278870.582259,53.000000,0.000000,3896.410156,4609.743652,4165.641113,4257.436035,3717.435791,4608.717773,3976.410156,3864.615479,4289.743652,3992.307617,4191.282227,4136.922852,3995.897461,3978.974365,0.000000,4.000000,,,,0.000000,4.000000,4.000000,0.000000,4.000000,4.000000,4.000000,4.000000,4.000000,4.000000,1.000000,4.000000,4.000000,4.000000,2.000000,25.000000
1602278870.589984,54.000000,0.000000,3906.153809,4622.051270,4165.641113,4266.666504,3713.846191,4630.769043,3975.384521,3876.923096,4305.641113,4000.000000,4218.461426,4152.307617,4015.897461,3985.641113,0.000000,4.000000,,,,0.000000,4.000000,4.000000,0.000000,4.000000,4.000000,4.000000,4.000000,4.000000,4.000000,1.000000,4.000000,4.000000,4.000000,2.000000,25.000000
1602278870.597808,55.000000,0.000000,3901.025635,4627.179688,4163.077148,4257.948730,3701.025635,4615.897461,3970.256348,3875.897461,4306.153809,4001.538574,4215.384766,4151.794922,4014.358887,3982.051270,0.000000,4.000000,,,,0.000000,4.000000,4.000000,0.000000,4.000000,4.000000,4.000000,4.000000,4.000000,4.000000,1.000000,4.000000,4.000000,4.000000,2.000000,25.000000
1602278870.605532,56.000000,0.000000,3900.512939,4618.461426,4165.641113,4249.743652,3710.256348,4605.641113,3975.384521,3870.256348,4301.025879,4002.051270,4206.153809,4150.256348,4004.102539,3980.512939,0.000000,4.000000,,,,0.000000,4.000000,4.000000,0.000000,4.000000,4.000000,4.000000,4.000000,4.000000,4.000000,1.000000,4.000000,4.000000,4.000000,2.000000,25.000000
1602278870.613459,57.000000,0.000000,3905.641113,4621.538574,4168.205078,4257.436035,3729.743652,4615.897461,3975.897461,3877.435791,4311.794922,4005.641113,4218.461426,4156.922852,4015.384521,3986.666748,0.000000,4.000000,,,,0.000000,4.000000,4.000000,0.000000,4.000000,4.000000,4.000000,4.000000,4.000000,4.000000,1.000000,4.000000,4.000000,4.000000,2.000000,25.000000
1602278870.621285,58.000000,0.000000,3904.615479,4631.282227,4166.153809,4263.077148,3724.102539,4616.922852,3966.666748,3883.589844,4319.487305,4005.641113,4223.589844,4156.410156,4028.205078,3987.179443,0.000000,4.000000,,,,0.000000,4.000000,4.000000,0.000000,4.000000,4.000000,4.000000,4.000000,4.000000,4.000000,1.000000,4.000000,4.000000,4.000000,2.000000,25.000000
1602278870.629211,59.000000,0.000000,3902.051270,4631.794922,4166.666504,4260.000000,3710.769287,4611.282227,3970.256348,3881.025635,4311.794922,4003.076904,4215.384766,4147.692383,4020.512939,3978.974365,0.000000,4.000000,,,,0.000000,4.000000,4.000000,0.000000,4.000000,4.000000,4.000000,4.000000,4.000000,4.000000,1.000000,4.000000,4.000000,4.000000,2.000000,25.000000
1602278870.637037,60.000000,0.000000,3906.153809,4631.282227,4165.128418,4264.615234,3723.076904,4616.922852,3983.589844,3877.435791,4298.974121,4002.051270,4206.666504,4144.102539,4011.281982,3977.948730,0.000000,4.000000,,,,0.000000,4.000000,4.000000,0.000000,4.000000,4.000000,4.000000,4.000000,4.000000,4.000000,1.000000,4.000000,4.000000,4.000000,2.000000,25.000000
1602278870.644963,61.000000,0.000000,3906.153809,4636.410156,4159.487305,4270.769043,3734.358887,4628.205078,3990.769287,3883.076904,4302.051270,4001.025635,4203.589844,4144.615234,4013.333252,3981.538574,0.000000,4.000000,,,,0.000000,4.000000,4.000000,0.000000,4.000000,4.000000,4.000000,4.000000,4.000000,4.000000,1.000000,4.000000,4.000000,4.000000,2.000000,25.000000
1602278870.652789,62.000000,0.000000,3900.000000,4630.769043,4161.025879,4267.179688,3725.128174,4631.794922,3995.897461,3889.230713,4315.384766,4002.051270,4207.179688,4146.666504,4013.333252,3980.000000,0.000000,4.000000,,,,0.000000,4.000000,4.000000,0.000000,4.000000,4.000000,4.000000,4.000000,4.000000,4.000000,1.000000,4.000000,4.000000,4.000000,2.000000,25.000000
1602278870.660714,63.000000,0.000000,3900.000000,4614.871582,4162.563965,4264.102539,3734.871826,4628.717773,3998.461426,3888.718018,4311.794922,4006.153809,4216.410156,4152.820313,4012.307617,3979.487061,0.000000,4.000000,,,,0.000000,4.000000,4.000000,0.000000,4.000000,4.000000,4.000000,4.000000,4.000000,4.000000,1.000000,4.000000,4.000000,4.000000,2.000000,25.000000
1602278870.668540,64.000000,0.000000,3904.615479,4610.256348,4165.641113,4263.589844,3750.769287,4624.615234,3993.333252,3882.564209,4303.589844,4008.205078,4218.974121,4155.384766,4008.205078,3984.615479,0.000000,4.000000,,,,0.000000,4.000000,4.000000,0.000000,4.000000,4.000000,4.000000,4.000000,4.000000,4.000000,1.000000,4.000000,4.000000,4.000000,2.000000,25.000000
1602278870.676466,65.000000,0.000000,3900.000000,4617.948730,4166.666504,4263.077148,3732.307617,4622.563965,3988.205078,3881.538574,4314.358887,4004.615479,4216.410156,4148.717773,4005.128174,3979.487061,426.000000,4.000000,,,,0.000000,4.000000,4.000000,0.000000,4.000000,4.000000,4.000000,4.000000,4.000000,4.000000,1.000000,4.000000,4.000000,4.000000,2.000000,25.000000
1602278870.684291,66.000000,0.000000,3898.461426,4625.128418,4165.641113,4268.205078,3715.384521,4626.153809,3991.281982,3888.718018,4325.128418,4003.589844,4213.846191,4145.641113,4015.384521,3975.897461,390.000000,4.000000,,,,0.000000,4.000000,4.000000,0.000000,4.000000,4.000000,4.000000,4.000000,4.000000,4.000000,1.000000,4.000000,4.000000,4.000000,2.000000,25.000000
1602278870.692016,67.000000,0.000000,3906.153809,4633.333496,4163.589844,4275.384766,3728.205078,4634.358887,3994.358887,3894.871826,4320.512695,4007.692383,4215.897461,4150.256348,4026.666748,3981.025635,448.000000,4.000000,,,,0.000000,4.000000,4.000000,0.000000,4.000000,4.000000,4.000000,4.000000,4.000000,4.000000,1.000000,4.000000,4.000000,4.000000,2.000000,25.000000
1602278870.699842,68.000000,0.000000,3904.102539,4635.897461,4166.666504,4269.230957,3740.512939,4628.717773,3983.589844,3892.820557,4319.487305,4006.153809,4220.512695,4150.769043,4023.076904,3980.512939,478.000000,4.000000,,,,0.000000,4.000000,4.000000,0.000000,4.000000,4.000000,4.000000,4.000000,4.000000,4.000000,1.000000,4.000000,4.000000,4.000000,2.000000,25.000000
1602278870.707567,69.000000,0.000000,3895.384521,4629.743652,4163.589844,4259.487305,3737.948730,4619.487305,3979.487061,3889.743652,4321.025879,4005.128174,4217.948730,4147.179688,4020.000000,3974.871826,413.000000,4.000000,,,,0.000000,4.000000,4.000000,0.000000,4.000000,4.000000,4.000000,4.000000,4.000000,4.000000,1.000000,4.000000,4.000000,4.000000,2.000000,25.000000
1602278870.715392,70.000000,0.000000,3902.051270,4632.307617,4160.512695,4267.692383,3736.410156,4624.615234,3987.692383,3890.256348,4317.436035,4011.281982,4217.948730,4150.769043,4032.307617,3982.051270,473.000000,4.000000,,,,0.000000,4.000000,4.000000,0.000000,4.000000,4.000000,4.000000,4.000000,4.000000,4.000000,1.000000,4.000000,4.000000,4.000000,2.000000,25.000000
1602278870.723117,71.000000,0.000000,3913.333252,4639.487305,4164.102539,4277.436035,3748.205078,4627.179688,3980.512939,3884.615479,4317.948730,4010.256348,4222.051270,4154.358887,4037.435791,3986.666748,393.000000,4.000000,,,,0.000000,4.000000,4.000000,0.000000,4.000000,4.000000,4.000000,4.000000,4.000000,4.000000,1.000000,4.000000,4.000000,4.000000,2.000000,25.000000
1602278870.730942,72.000000,0.000000,3907.692383,4627.692383,4164.615234,4267.179688,3757.948730,4618.461426,3968.718018,3875.897461,4313.846191,4002.564209,4215.384766,4147.692383,4021.538574,3978.461426,414.000000,4.000000,,,,0.000000,4.000000,4.000000,0.000000,4.000000,4.000000,4.000000,4.000000,4.000000,4.000000,1.000000,4.000000,4.000000,4.000000,2.000000,25.000000
1602278870.738667,73.000000,0.000000,3901.025635,4619.487305,4162.051270,4263.589844,3747.692383,4614.871582,3971.794922,3873.846191,4300.000000,4001.025635,4208.717773,4141.538574,4004.102539,3976.410156,60.000000,4.000000,,,,0.000000,4.000000,4.000000,0.000000,4.000000,4.000000,4.000000,4.000000,4.000000,4.000000,1.000000,4.000000,4.000000,4.000000,2.000000,25.000000
1602278870.746492,74.000000,0.000000,3906.153809,4638.974121,4164.102539,4281.538574,3740.000000,4623.077148,3977.948730,3871.281982,4292.820313,4004.102539,4211.794922,4147.692383,4015.384521,3981.538574,444.000000,4.000000,,,,0.000000,4.000000,4.000000,0.000000,4.000000,4.000000,4.000000,4.000000,4.000000,4.000000,1.000000,4.000000,4.000000,4.000000,2.000000,25.000000
1602278870.754217,75.000000,0.000000,3907.692383,4652.307617,4167.692383,4286.153809,3752.307617,4625.641113,3974.871826,3862.564209,4296.922852,4005.128174,4215.384766,4154.358887,4041.025635,3984.615479,231.000000,4.000000,,,,0.000000,4.000000,4.000000,0.000000,4.000000,4.000000,4.000000,4.000000,4.000000,4.000000,1.000000,4.000000,4.000000,4.000000,2.000000,25.000000
1602278870.762041,76.000000,0.000000,3901.538574,4638.974121,4163.589844,4272.820313,3749.743652,4623.589844,3975.897461,3866.153809,4302.051270,4005.641113,4210.256348,4150.769043,4040.000000,3981.538574,426.000000,4.000000,,,,0.000000,4.000000,4.000000,0.000000,4.000000,4.000000,4.000000,4.000000,4.000000,4.000000,1.000000,4.000000,4.000000,4.000000,2.000000,25.000000
1602278870.769766,77.000000,0.000000,3897.435791,4628.205078,4160.512695,4272.820313,3733.333252,4623.589844,3978.461426,3877.435791,4301.538574,4004.615479,4205.128418,4147.692383,4023.076904,3980.000000,355.000000,4.000000,,,,0.000000,4.000000,4.000000,0.000000,4.000000,4.000000,4.000000,4.000000,4.000000,4.000000,1.000000,4.000000,4.000000,4.000000,2.000000,25.000000
1602278870.777590,78.000000,0.000000,3890.769287,4631.794922,4160.512695,4278.461426,3733.846191,4622.051270,3980.000000,3881.025635,4306.153809,4005.128174,4205.128418,4147.692383,4018.461426,3976.410156,444.000000,4.000000,,,,0.000000,4.000000,4.000000,0.000000,4.000000,4.000000,4.000000,4.000000,4.000000,4.000000,1.000000,4.000000,4.000000,4.000000,2.000000,25.000000
1602278870.785315,79.000000,0.000000,3882.564209,4629.743652,4165.128418,4270.256348,3738.974365,4625.128418,3990.256348,3882.051270,4310.769043,4006.153809,4206.153809,4147.179688,4013.846191,3972.820557,231.000000,4.000000,,,,0.000000,4.000000,4.000000,0.000000,4.000000,4.000000,4.000000,4.000000,4.000000,4.000000,1.000000,4.000000,4.000000,4.000000,2.000000,25.000000
1602278870.793241,80.000000,0.000000,3885.128174,4613.846191,4165.641113,4262.563965,3745.128174,4628.205078,3993.846191,3882.564209,4306.666504,4004.102539,4204.102539,4143.077148,4006.153809,3971.794922,426.000000,4.000000,,,,0.000000,4.000000,4.000000,0.000000,4.000000,4.000000,4.000000,4.000000,4.000000,4.000000,1.000000,4.000000,4.000000,4.000000,2.000000,25.000000
1602278870.801068,81.000000,0.000000,3890.256348,4604.615234,4165.128418,4267.179688,3748.205078,4620.000000,3980.512939,3875.897461,4301.538574,4003.076904,4196.410156,4136.922852,4007.179443,3972.820557,355.000000,4.000000,,,,0.000000,4.000000,4.000000,0.000000,4.000000,4.000000,4.000000,4.000000,4.000000,4.000000,1.000000,4.000000,4.000000,4.000000,2.000000,25.000000
1602278870.808994,82.000000,0.000000,3887.179443,4612.820313,4164.615234,4267.179688,3737.435791,4612.820313,3971.794922,3867.179443,4294.871582,4003.076904,4193.846191,4133.846191,4006.153809,3972.307617,444.000000,4.000000,,,,0.000000,4.000000,4.000000,0.000000,4.000000,4.000000,4.000000,4.000000,4.000000,4.000000,1.000000,4.000000,4.000000,4.000000,2.000000,25.000000
1602278870.816820,83.000000,0.000000,3888.718018,4623.077148,4164.615234,4265.128418,3740.000000,4617.948730,3976.410156,3866.153809,4293.333496,4004.102539,4201.025879,4142.563965,4002.564209,3975.384521,231.000000,4.000000,,,,0.000000,4.000000,4.000000,0.000000,4.000000,4.000000,4.000000,4.000000,4.000000,4.000000,1.000000,4.000000,4.000000,4.000000,2.000000,25.000000
1602278870.824745,84.000000,0.000000,3894.871826,4628.205078,4161.538574,4267.692383,3758.974365,4623.589844,3978.461426,3871.281982,4299.487305,4004.615479,4208.205078,4147.179688,4012.307617,3978.461426,426.000000,4.000000,,,,0.000000,4.000000,4.000000,0.000000,4.000000,4.000000,4.000000,4.000000,4.000000,4.000000,1.000000,4.000000,4.000000,4.000000,2.000000,25.000000
