title:your record name, start timestamp:1601229331.666885, stop timestamp:1601229341.745962, headset type:EPOC, headset serial:29322883, headset firmware:1e00, subject name:alzaabi.su, channels:38, sampling rate:128, samples:1290      , version:2.0
Timestamp,EEG.Counter,EEG.Interpolated,EEG.AF3,EEG.F7,EEG.F3,EEG.FC5,EEG.T7,EEG.P7,EEG.O1,EEG.O2,EEG.P8,EEG.T8,EEG.FC6,EEG.F4,EEG.F8,EEG.AF4,EEG.RawCq,EEG.Battery,MarkerIndex,MarkerType,MarkerValueInt,EEG.MarkerHardware,CQ.AF3,CQ.F7,CQ.F3,CQ.FC5,CQ.T7,CQ.P7,CQ.O1,CQ.O2,CQ.P8,CQ.T8,CQ.FC6,CQ.F4,CQ.F8,CQ.AF4,CQ.Overall
1601229331.666885,14.000000,0.000000,3966.666748,4654.358887,4175.897461,4289.230957,3991.281982,4636.410156,3962.051270,3869.743652,4342.051270,4012.820557,4288.717773,4192.307617,4132.307617,4028.718018,424.000000,4.000000,,,,0.000000,2.000000,4.000000,4.000000,4.000000,4.000000,4.000000,4.000000,4.000000,4.000000,4.000000,2.000000,4.000000,4.000000,1.000000,41.666668
1601229331.674619,15.000000,0.000000,3945.128174,4626.153809,4159.487305,4266.153809,3974.358887,4622.563965,3952.820557,3853.846191,4319.487305,3985.128174,4275.897461,4173.333496,4116.410156,4023.076904,44.000000,4.000000,,,,0.000000,2.000000,4.000000,4.000000,4.000000,4.000000,4.000000,4.000000,4.000000,4.000000,4.000000,2.000000,4.000000,4.000000,1.000000,41.666668
1601229331.682454,16.000000,0.000000,3933.333252,4611.794922,4151.282227,4264.102539,3973.333252,4623.589844,3962.051270,3855.384521,4312.307617,3978.974365,4266.666504,4160.512695,4102.563965,4016.923096,0.000000,4.000000,,,,0.000000,2.000000,4.000000,4.000000,4.000000,4.000000,4.000000,4.000000,4.000000,4.000000,4.000000,2.000000,4.000000,4.000000,1.000000,41.666668
1601229331.690188,17.000000,0.000000,3933.333252,4613.846191,4151.794922,4258.461426,3982.564209,4632.820313,3975.384521,3870.769287,4329.230957,3993.333252,4263.589844,4154.358887,4097.436035,4016.923096,0.000000,4.000000,,,,0.000000,2.000000,4.000000,4.000000,4.000000,4.000000,4.000000,4.000000,4.000000,4.000000,4.000000,2.000000,4.000000,4.000000,1.000000,41.666668
1601229331.698021,18.000000,0.000000,3938.461426,4620.000000,4155.384766,4251.282227,3982.051270,4637.436035,3974.871826,3875.897461,4340.512695,3993.846191,4258.461426,4152.307617,4088.205078,4015.384521,0.000000,4.000000,,,,0.000000,2.000000,4.000000,4.000000,4.000000,4.000000,4.000000,4.000000,4.000000,4.000000,4.000000,2.000000,4.000000,4.000000,1.000000,41.666668
1601229331.705754,19.000000,0.000000,3938.461426,4628.205078,4153.846191,4266.153809,3973.846191,4625.641113,3962.051270,3865.641113,4330.256348,3982.564209,4250.769043,4150.256348,4073.846191,4012.307617,0.000000,4.000000,,,,0.000000,2.000000,4.000000,4.000000,4.000000,4.000000,4.000000,4.000000,4.000000,4.000000,4.000000,2.000000,4.000000,4.000000,1.000000,41.666668
1601229331.713586,20.000000,0.000000,3943.589844,4646.666504,4155.897461,4286.153809,3975.897461,4623.077148,3956.410156,3863.589844,4326.666504,3991.794922,4258.461426,4157.948730,4091.281982,4014.358887,0.000000,4.000000,,,,0.000000,2.000000,4.000000,4.000000,4.000000,4.000000,4.000000,4.000000,4.000000,4.000000,4.000000,2.000000,4.000000,4.000000,1.000000,41.666668
1601229331.721318,21.000000,0.000000,3958.974365,4663.077148,4167.692383,4289.743652,3986.153809,4634.358887,3957.435791,3870.769287,4338.461426,4015.897461,4280.000000,4174.871582,4132.820313,4026.666748,0.000000,4.000000,,,,0.000000,2.000000,4.000000,4.000000,4.000000,4.000000,4.000000,4.000000,4.000000,4.000000,4.000000,2.000000,4.000000,4.000000,1.000000,41.666668
1601229331.729150,22.000000,0.000000,3966.153809,4657.436035,4175.384766,4286.666504,3984.102539,4630.256348,3952.820557,3867.179443,4340.512695,4024.615479,4288.205078,4185.128418,4144.615234,4029.230713,0.000000,4.000000,,,,0.000000,2.000000,4.000000,4.000000,4.000000,4.000000,4.000000,4.000000,4.000000,4.000000,4.000000,2.000000,4.000000,4.000000,1.000000,41.666668
1601229331.736882,23.000000,0.000000,3962.564209,4646.666504,4174.358887,4283.077148,3974.358887,4621.025879,3947.692383,3858.974365,4329.230957,4016.410156,4280.512695,4184.102539,4131.794922,4032.307617,0.000000,4.000000,,,,0.000000,2.000000,4.000000,4.000000,4.000000,4.000000,4.000000,4.000000,4.000000,4.000000,4.000000,2.000000,4.000000,4.000000,1.000000,41.666668
1601229331.744713,24.000000,0.000000,3965.641113,4653.333496,4177.948730,4282.051270,3981.025635,4625.128418,3944.615479,3858.974365,4327.179688,4014.358887,4279.487305,4184.615234,4129.230957,4050.769287,0.000000,4.000000,,,,0.000000,2.000000,4.000000,4.000000,4.000000,4.000000,4.000000,4.000000,4.000000,4.000000,4.000000,2.000000,4.000000,4.000000,1.000000,41.666668
1601229331.752443,25.000000,0.000000,3969.230713,4661.538574,4179.487305,4289.230957,3993.333252,4627.692383,3947.692383,3864.615479,4335.897461,4022.051270,4286.153809,4187.179688,4131.794922,4060.512939,0.000000,4.000000,,,,0.000000,2.000000,4.000000,4.000000,4.000000,4.000000,4.000000,4.000000,4.000000,4.000000,4.000000,2.000000,4.000000,4.000000,1.000000,41.666668
1601229331.760382,26.000000,0.000000,3963.589844,4649.230957,4174.871582,4285.128418,3990.256348,4624.615234,3954.871826,3870.256348,4337.948730,4024.102539,4285.128418,4186.153809,4124.102539,4048.205078,0.000000,4.000000,,,,0.000000,2.000000,4.000000,4.000000,4.000000,4.000000,4.000000,4.000000,4.000000,4.000000,4.000000,2.000000,4.000000,4.000000,1.000000,41.666668
1601229331.768221,27.000000,0.000000,3956.410156,4631.794922,4172.820313,4270.769043,3982.051270,4631.282227,3962.564209,3874.871826,4338.461426,4021.538574,4278.974121,4181.538574,4121.538574,4031.281982,0.000000,4.000000,,,,0.000000,2.000000,4.000000,4.000000,4.000000,4.000000,4.000000,4.000000,4.000000,4.000000,4.000000,2.000000,4.000000,4.000000,1.000000,41.666668
1601229331.776159,28.000000,0.000000,3947.179443,4625.641113,4163.589844,4269.230957,3978.461426,4634.358887,3963.076904,3873.846191,4338.461426,4017.948730,4275.384766,4172.820313,4123.077148,4022.564209,0.000000,4.000000,,,,0.000000,2.000000,4.000000,4.000000,4.000000,4.000000,4.000000,4.000000,4.000000,4.000000,4.000000,2.000000,4.000000,4.000000,1.000000,41.666668
1601229331.783996,29.000000,0.000000,3940.000000,4624.102539,4150.769043,4272.307617,3982.051270,4633.846191,3961.538574,3874.358887,4336.922852,4015.384521,4277.436035,4169.230957,4119.487305,4020.000000,0.000000,4.000000,,,,0.000000,2.000000,4.000000,4.000000,4.000000,4.000000,4.000000,4.000000,4.000000,4.000000,4.000000,2.000000,4.000000,4.000000,1.000000,41.666668
1601229331.791933,30.000000,0.000000,3945.128174,4622.563965,4155.384766,4260.000000,3984.102539,4636.410156,3960.512939,3871.281982,4330.769043,4011.281982,4277.436035,4169.743652,4114.871582,4022.564209,0.000000,4.000000,,,,0.000000,2.000000,4.000000,4.000000,4.000000,4.000000,4.000000,4.000000,4.000000,4.000000,4.000000,2.000000,4.000000,4.000000,1.000000,41.666668
1601229331.799770,31.000000,0.000000,3953.846191,4630.769043,4165.641113,4262.051270,3986.153809,4635.384766,3956.410156,3863.589844,4328.717773,4010.256348,4273.333496,4168.205078,4114.358887,4021.538574,0.000000,4.000000,,,,0.000000,2.000000,4.000000,4.000000,4.000000,4.000000,4.000000,4.000000,4.000000,4.000000,4.000000,2.000000,4.000000,4.000000,1.000000,41.666668
1601229331.807707,32.000000,0.000000,3954.358887,4643.077148,4162.563965,4283.589844,3987.692383,4625.641113,3946.666748,3855.897461,4326.153809,4007.692383,4270.769043,4169.230957,4109.230957,4021.025635,0.000000,4.000000,,,,0.000000,2.000000,4.000000,4.000000,4.000000,4.000000,4.000000,4.000000,4.000000,4.000000,4.000000,2.000000,4.000000,4.000000,1.000000,41.666668
1601229331.815544,33.000000,0.000000,3956.923096,4655.384766,4165.128418,4293.333496,3989.743652,4623.589844,3943.076904,3857.948730,4326.666504,4010.769287,4278.461426,4180.000000,4113.333496,4024.102539,0.000000,4.000000,,,,0.000000,2.000000,4.000000,4.000000,4.000000,4.000000,4.000000,4.000000,4.000000,4.000000,4.000000,2.000000,4.000000,4.000000,1.000000,41.666668
1601229331.823380,34.000000,0.000000,3964.102539,4654.871582,4177.436035,4285.641113,3989.230713,4626.153809,3943.076904,3864.102539,4337.436035,4025.128174,4289.743652,4192.820313,4135.897461,4029.230713,0.000000,4.000000,,,,0.000000,2.000000,4.000000,4.000000,4.000000,4.000000,4.000000,4.000000,4.000000,4.000000,4.000000,2.000000,4.000000,4.000000,1.000000,41.666668
1601229331.831215,35.000000,0.000000,3966.153809,4644.615234,4179.487305,4287.692383,3991.794922,4628.205078,3947.692383,3872.307617,4351.794922,4037.435791,4297.948730,4198.974121,4154.871582,4032.820557,0.000000,4.000000,,,,0.000000,2.000000,4.000000,4.000000,4.000000,4.000000,4.000000,4.000000,4.000000,4.000000,4.000000,2.000000,4.000000,4.000000,1.000000,41.666668
1601229331.838950,36.000000,0.000000,3961.538574,4636.922852,4172.820313,4289.743652,3993.846191,4628.205078,3950.256348,3874.871826,4348.205078,4032.820557,4294.871582,4195.384766,4143.077148,4031.794922,0.000000,4.000000,,,,0.000000,2.000000,4.000000,4.000000,4.000000,4.000000,4.000000,4.000000,4.000000,4.000000,4.000000,2.000000,4.000000,4.000000,1.000000,41.666668
1601229331.846785,37.000000,0.000000,3954.358887,4638.461426,4166.153809,4283.589844,3992.820557,4630.769043,3952.820557,3871.794922,4332.307617,4028.718018,4285.128418,4184.102539,4124.102539,4023.589844,0.000000,4.000000,,,,0.000000,2.000000,4.000000,4.000000,4.000000,4.000000,4.000000,4.000000,4.000000,4.000000,4.000000,2.000000,4.000000,4.000000,1.000000,41.666668
1601229331.854519,38.000000,0.000000,3945.641113,4636.410156,4158.461426,4283.077148,3990.256348,4633.846191,3959.487061,3869.743652,4330.256348,4022.051270,4280.000000,4173.846191,4115.897461,4021.538574,0.000000,4.000000,,,,0.000000,2.000000,4.000000,4.000000,4.000000,4.000000,4.000000,4.000000,4.000000,4.000000,4.000000,2.000000,4.000000,4.000000,1.000000,41.666668
1601229331.862354,39.000000,0.000000,3940.000000,4628.717773,4155.897461,4274.871582,3986.153809,4635.384766,3967.692383,3871.281982,4335.897461,4004.102539,4274.871582,4169.743652,4106.666504,4024.102539,0.000000,4.000000,,,,0.000000,2.000000,4.000000,4.000000,4.000000,4.000000,4.000000,4.000000,4.000000,4.000000,4.000000,2.000000,4.000000,4.000000,1.000000,41.666668
1601229331.870088,40.000000,0.000000,3936.923096,4622.563965,4153.333496,4262.051270,3982.051270,4639.487305,3972.820557,3874.358887,4336.922852,3997.435791,4270.769043,4169.230957,4098.974121,4018.461426,0.000000,4.000000,,,,0.000000,2.000000,4.000000,4.000000,4.000000,4.000000,4.000000,4.000000,4.000000,4.000000,4.000000,2.000000,4.000000,4.000000,1.000000,41.666668
1601229331.877922,41.000000,0.000000,3936.410156,4616.410156,4148.205078,4269.743652,3983.076904,4642.051270,3970.769287,3872.307617,4335.897461,4006.666748,4273.333496,4171.282227,4108.717773,4017.435791,0.000000,4.000000,,,,0.000000,2.000000,4.000000,4.000000,4.000000,4.000000,4.000000,4.000000,4.000000,4.000000,4.000000,2.000000,4.000000,4.000000,1.000000,41.666668
1601229331.885654,42.000000,0.000000,3942.051270,4610.256348,4154.871582,4279.487305,3989.230713,4640.512695,3966.666748,3868.718018,4337.436035,4014.871826,4282.051270,4179.487305,4128.205078,4030.256348,0.000000,4.000000,,,,0.000000,2.000000,4.000000,4.000000,4.000000,4.000000,4.000000,4.000000,4.000000,4.000000,4.000000,2.000000,4.000000,4.000000,1.000000,41.666668
1601229331.893486,43.000000,0.000000,3954.358887,4616.410156,4167.692383,4276.410156,3991.794922,4635.897461,3961.538574,3866.666748,4337.436035,4017.948730,4285.128418,4184.102539,4131.282227,4036.410156,0.000000,4.000000,,,,0.000000,2.000000,4.000000,4.000000,4.000000,4.000000,4.000000,4.000000,4.000000,4.000000,4.000000,2.000000,4.000000,4.000000,1.000000,41.666668
1601229331.901218,44.000000,0.000000,3958.461426,4631.282227,4167.692383,4284.102539,3988.205078,4624.615234,3948.205078,3861.538574,4329.743652,4013.333252,4278.461426,4178.974121,4120.512695,4034.871826,0.000000,4.000000,,,,0.000000,2.000000,4.000000,4.000000,4.000000,4.000000,4.000000,4.000000,4.000000,4.000000,4.000000,2.000000,4.000000,4.000000,1.000000,41.666668
1601229331.909049,45.000000,0.000000,3953.846191,4642.051270,4165.641113,4296.410156,3986.666748,4609.230957,3931.794922,3852.307617,4317.436035,4001.025635,4273.333496,4176.922852,4111.794922,4038.461426,0.000000,4.000000,,,,0.000000,2.000000,4.000000,4.000000,4.000000,4.000000,4.000000,4.000000,4.000000,4.000000,4.000000,2.000000,4.000000,4.000000,1.000000,41.666668
1601229331.916780,46.000000,0.000000,3959.487061,4655.897461,4171.794922,4304.102539,4000.000000,4616.922852,3934.358887,3856.923096,4325.641113,4012.820557,4283.589844,4186.153809,4122.051270,4038.974365,0.000000,4.000000,,,,0.000000,2.000000,4.000000,4.000000,4.000000,4.000000,4.000000,4.000000,4.000000,4.000000,4.000000,2.000000,4.000000,4.000000,1.000000,41.666668
1601229331.924610,47.000000,0.000000,3964.102539,4660.512695,4174.358887,4304.102539,4007.692383,4634.358887,3946.666748,3863.589844,4338.461426,4027.692383,4291.794922,4190.256348,4134.358887,4039.487061,0.000000,4.000000,,,,0.000000,2.000000,4.000000,4.000000,4.000000,4.000000,4.000000,4.000000,4.000000,4.000000,4.000000,2.000000,4.000000,4.000000,1.000000,41.666668
1601229331.932340,48.000000,0.000000,3955.897461,4646.666504,4168.717773,4292.820313,3998.974365,4633.333496,3951.281982,3858.974365,4332.307617,4013.846191,4279.487305,4181.025879,4124.615234,4041.025635,0.000000,4.000000,,,,0.000000,2.000000,4.000000,4.000000,4.000000,4.000000,4.000000,4.000000,4.000000,4.000000,4.000000,2.000000,4.000000,4.000000,1.000000,41.666668
1601229331.940279,49.000000,0.000000,3942.051270,4629.743652,4159.487305,4278.461426,3987.179443,4621.025879,3944.102539,3851.794922,4316.410156,3992.307617,4263.077148,4169.743652,4102.051270,4034.871826,0.000000,4.000000,,,,0.000000,2.000000,4.000000,4.000000,4.000000,4.000000,4.000000,4.000000,4.000000,4.000000,4.000000,2.000000,4.000000,4.000000,1.000000,41.666668
1601229331.948118,50.000000,0.000000,3937.948730,4632.820313,4156.410156,4283.589844,3991.281982,4622.051270,3935.384521,3855.897461,4320.000000,3995.384521,4264.102539,4168.717773,4097.436035,4023.076904,0.000000,4.000000,,,,0.000000,2.000000,4.000000,4.000000,4.000000,4.000000,4.000000,4.000000,4.000000,4.000000,4.000000,2.000000,4.000000,4.000000,1.000000,41.666668
1601229331.956055,51.000000,0.000000,3942.564209,4640.512695,4158.461426,4287.179688,3999.487061,4628.717773,3941.538574,3863.076904,4330.769043,4005.641113,4270.256348,4174.358887,4104.102539,4023.589844,0.000000,4.000000,,,,0.000000,2.000000,4.000000,4.000000,4.000000,4.000000,4.000000,4.000000,4.000000,4.000000,4.000000,2.000000,4.000000,4.000000,1.000000,41.666668
1601229331.963892,52.000000,0.000000,3943.076904,4642.051270,4157.436035,4285.128418,4002.051270,4634.358887,3967.179443,3866.153809,4333.333496,4007.179443,4271.794922,4178.461426,4108.717773,4026.666748,0.000000,4.000000,,,,0.000000,2.000000,4.000000,4.000000,4.000000,4.000000,4.000000,4.000000,4.000000,4.000000,4.000000,2.000000,4.000000,4.000000,1.000000,41.666668
1601229331.971829,53.000000,0.000000,3940.000000,4635.384766,4157.948730,4283.077148,3997.435791,4629.743652,3963.076904,3862.051270,4328.717773,4007.692383,4273.846191,4177.436035,4114.358887,4028.205078,0.000000,4.000000,,,,0.000000,2.000000,4.000000,4.000000,4.000000,4.000000,4.000000,4.000000,4.000000,4.000000,4.000000,2.000000,4.000000,4.000000,1.000000,41.666668
1601229331.979665,54.000000,0.000000,3940.000000,4628.205078,4162.051270,4278.461426,3992.820557,4620.000000,3928.205078,3856.923096,4326.153809,4009.230713,4274.871582,4177.948730,4114.871582,4032.307617,0.000000,4.000000,,,,0.000000,2.000000,4.000000,4.000000,4.000000,4.000000,4.000000,4.000000,4.000000,4.000000,4.000000,2.000000,4.000000,4.000000,1.000000,41.666668
1601229331.987601,55.000000,0.000000,3942.051270,4637.948730,4160.000000,4281.538574,3996.923096,4622.563965,3920.512939,3855.897461,4325.128418,4012.820557,4275.897461,4180.512695,4113.846191,4035.384521,0.000000,4.000000,,,,0.000000,2.000000,4.000000,4.000000,4.000000,4.000000,4.000000,4.000000,4.000000,4.000000,4.000000,2.000000,4.000000,4.000000,1.000000,41.666668
1601229331.995437,56.000000,0.000000,3945.128174,4650.256348,4160.512695,4290.769043,4002.564209,4626.153809,3934.871826,3855.897461,4320.512695,4012.307617,4277.948730,4183.589844,4115.384766,4032.820557,0.000000,4.000000,,,,0.000000,2.000000,4.000000,4.000000,4.000000,4.000000,4.000000,4.000000,4.000000,4.000000,4.000000,2.000000,4.000000,4.000000,1.000000,41.666668
1601229332.003173,57.000000,0.000000,3952.307617,4649.230957,4169.230957,4294.871582,4002.051270,4621.025879,3937.948730,3856.410156,4320.000000,4010.769287,4277.948730,4190.256348,4115.897461,4033.846191,0.000000,4.000000,,,,0.000000,2.000000,4.000000,4.000000,4.000000,4.000000,4.000000,4.000000,4.000000,4.000000,4.000000,2.000000,4.000000,4.000000,1.000000,41.666668
1601229332.011008,58.000000,0.000000,3954.358887,4650.256348,4171.794922,4290.256348,3994.358887,4616.922852,3934.871826,3855.384521,4323.077148,4008.205078,4277.436035,4192.820313,4116.922852,4037.948730,0.000000,4.000000,,,,0.000000,2.000000,4.000000,4.000000,4.000000,4.000000,4.000000,4.000000,4.000000,4.000000,4.000000,2.000000,4.000000,4.000000,1.000000,41.666668
1601229332.018743,59.000000,0.000000,3955.897461,4657.948730,4172.307617,4287.692383,3993.333252,4620.000000,3940.512939,3858.974365,4329.230957,4016.410156,4284.102539,4193.846191,4125.641113,4039.487061,0.000000,4.000000,,,,0.000000,2.000000,4.000000,4.000000,4.000000,4.000000,4.000000,4.000000,4.000000,4.000000,4.000000,2.000000,4.000000,4.000000,1.000000,41.666668
1601229332.026577,60.000000,0.000000,3965.128174,4651.282227,4181.025879,4290.256348,3996.410156,4622.051270,3945.641113,3868.718018,4333.846191,4026.666748,4289.743652,4199.487305,4131.794922,4045.641113,0.000000,4.000000,,,,0.000000,2.000000,4.000000,4.000000,4.000000,4.000000,4.000000,4.000000,4.000000,4.000000,4.000000,2.000000,4.000000,4.000000,1.000000,41.666668
1601229332.034312,61.000000,0.000000,3961.538574,4647.692383,4177.948730,4298.974121,3997.948730,4624.615234,3948.718018,3871.281982,4334.358887,4024.615479,4286.153809,4196.410156,4126.666504,4047.692383,0.000000,4.000000,,,,0.000000,2.000000,4.000000,4.000000,4.000000,4.000000,4.000000,4.000000,4.000000,4.000000,4.000000,2.000000,4.000000,4.000000,1.000000,41.666668
1601229332.042146,62.000000,0.000000,3946.666748,4654.871582,4163.589844,4297.436035,3996.410156,4626.153809,3947.179443,3863.589844,4328.717773,4008.205078,4274.871582,4181.025879,4110.256348,4040.512939,0.000000,4.000000,,,,0.000000,2.000000,4.000000,4.000000,4.000000,4.000000,4.000000,4.000000,4.000000,4.000000,4.000000,2.000000,4.000000,4.000000,1.000000,41.666668
1601229332.049878,63.000000,0.000000,3943.076904,4646.666504,4157.436035,4285.128418,3997.948730,4627.692383,3946.666748,3858.974365,4320.512695,3994.871826,4265.128418,4170.256348,4091.794922,4037.435791,0.000000,4.000000,,,,0.000000,2.000000,4.000000,4.000000,4.000000,4.000000,4.000000,4.000000,4.000000,4.000000,4.000000,2.000000,4.000000,4.000000,1.000000,41.666668
1601229332.057711,64.000000,0.000000,3945.128174,4632.820313,4156.922852,4281.025879,3997.948730,4626.666504,3943.589844,3854.358887,4312.820313,3993.333252,4261.025879,4168.717773,4088.718018,4044.615479,376.000000,4.000000,,,,0.000000,2.000000,4.000000,4.000000,4.000000,4.000000,4.000000,4.000000,4.000000,4.000000,4.000000,2.000000,4.000000,4.000000,1.000000,41.666668
1601229332.065444,65.000000,0.000000,3945.128174,4645.641113,4154.358887,4290.256348,3995.897461,4625.641113,3940.000000,3853.333252,4318.974121,4004.615479,4266.153809,4172.820313,4110.769043,4044.615479,430.000000,4.000000,,,,0.000000,2.000000,4.000000,4.000000,4.000000,4.000000,4.000000,4.000000,4.000000,4.000000,4.000000,2.000000,4.000000,4.000000,1.000000,41.666668
1601229332.073277,66.000000,0.000000,3948.205078,4650.256348,4161.538574,4288.205078,3993.846191,4622.051270,3940.512939,3856.410156,4325.641113,4012.307617,4273.333496,4181.025879,4120.000000,4043.076904,383.000000,4.000000,,,,0.000000,2.000000,4.000000,4.000000,4.000000,4.000000,4.000000,4.000000,4.000000,4.000000,4.000000,2.000000,4.000000,4.000000,1.000000,41.666668
1601229332.081009,67.000000,0.000000,3954.871826,4635.897461,4176.410156,4278.974121,3995.897461,4622.563965,3941.025635,3859.487061,4326.153809,4012.820557,4273.846191,4185.641113,4111.282227,4044.102539,435.000000,4.000000,,,,0.000000,2.000000,4.000000,4.000000,4.000000,4.000000,4.000000,4.000000,4.000000,4.000000,4.000000,2.000000,4.000000,4.000000,1.000000,41.666668
1601229332.088841,68.000000,0.000000,3955.384521,4640.000000,4174.358887,4289.743652,3997.435791,4624.102539,3938.461426,3859.487061,4325.641113,4012.307617,4270.256348,4184.615234,4109.230957,4044.615479,457.000000,4.000000,,,,0.000000,2.000000,4.000000,4.000000,4.000000,4.000000,4.000000,4.000000,4.000000,4.000000,4.000000,2.000000,4.000000,4.000000,1.000000,41.666668
1601229332.096572,69.000000,0.000000,3956.923096,4661.538574,4167.692383,4311.794922,4002.051270,4627.179688,3945.128174,3864.615479,4327.692383,4016.410156,4274.358887,4185.128418,4115.384766,4044.102539,435.000000,4.000000,,,,0.000000,2.000000,4.000000,4.000000,4.000000,4.000000,4.000000,4.000000,4.000000,4.000000,4.000000,2.000000,4.000000,4.000000,1.000000,41.666668
1601229332.104402,70.000000,0.000000,3957.948730,4658.974121,4172.307617,4303.589844,3998.461426,4624.102539,3951.794922,3868.718018,4324.615234,4013.846191,4277.436035,4186.666504,4107.179688,4046.153809,449.000000,4.000000,,,,0.000000,2.000000,4.000000,4.000000,4.000000,4.000000,4.000000,4.000000,4.000000,4.000000,4.000000,2.000000,4.000000,4.000000,1.000000,41.666668
1601229332.112132,71.000000,0.000000,3951.794922,4643.589844,4169.230957,4282.563965,3989.230713,4618.974121,3952.307617,3871.281982,4325.641113,4009.230713,4273.846191,4189.743652,4101.025879,4040.000000,355.000000,4.000000,,,,0.000000,2.000000,4.000000,4.000000,4.000000,4.000000,4.000000,4.000000,4.000000,4.000000,4.000000,2.000000,4.000000,4.000000,1.000000,41.666668
1601229332.120071,72.000000,0.000000,3946.153809,4640.512695,4161.538574,4282.051270,3990.769287,4627.179688,3958.974365,3879.487061,4341.025879,4023.589844,4279.487305,4196.922852,4119.487305,4034.871826,403.000000,4.000000,,,,0.000000,2.000000,4.000000,4.000000,4.000000,4.000000,4.000000,4.000000,4.000000,4.000000,4.000000,2.000000,4.000000,4.000000,1.000000,41.666668
1601229332.127909,73.000000,0.000000,3946.153809,4636.410156,4162.563965,4281.538574,3994.358887,4633.333496,3962.051270,3883.589844,4349.230957,4037.435791,4287.692383,4197.436035,4128.205078,4040.000000,405.000000,4.000000,,,,0.000000,2.000000,4.000000,4.000000,4.000000,4.000000,4.000000,4.000000,4.000000,4.000000,4.000000,2.000000,4.000000,4.000000,1.000000,41.666668
1601229332.135846,74.000000,0.000000,3946.666748,4630.769043,4159.487305,4274.358887,3987.179443,4629.230957,3952.820557,3874.871826,4341.025879,4026.666748,4281.538574,4184.615234,4114.358887,4038.461426,424.000000,4.000000,,,,0.000000,2.000000,4.000000,4.000000,4.000000,4.000000,4.000000,4.000000,4.000000,4.000000,4.000000,2.000000,4.000000,4.000000,1.000000,41.666668
1601229332.143683,75.000000,0.000000,3945.641113,4628.205078,4156.410156,4273.846191,3981.538574,4626.666504,3947.692383,3863.076904,4327.692383,4007.179443,4267.179688,4174.358887,4098.461426,4029.743652,44.000000,4.000000,,,,0.000000,2.000000,4.000000,4.000000,4.000000,4.000000,4.000000,4.000000,4.000000,4.000000,4.000000,2.000000,4.000000,4.000000,1.000000,41.666668
1601229332.151620,76.000000,0.000000,3945.641113,4631.282227,4160.000000,4281.538574,3989.743652,4630.769043,3951.794922,3858.461426,4321.025879,4000.000000,4263.589844,4172.307617,4089.743652,4024.615479,241.000000,4.000000,,,,0.000000,2.000000,4.000000,4.000000,4.000000,4.000000,4.000000,4.000000,4.000000,4.000000,4.000000,2.000000,4.000000,4.000000,1.000000,41.666668
1601229332.159457,77.000000,0.000000,3944.102539,4642.563965,4157.948730,4289.743652,4000.512939,4629.743652,3948.205078,3854.358887,4316.410156,4002.051270,4264.615234,4172.820313,4089.230713,4022.564209,346.000000,4.000000,,,,0.000000,2.000000,4.000000,4.000000,4.000000,4.000000,4.000000,4.000000,4.000000,4.000000,4.000000,2.000000,4.000000,4.000000,1.000000,41.666668
1601229332.167393,78.000000,0.000000,3947.179443,4649.743652,4158.461426,4294.358887,4005.128174,4628.205078,3944.102539,3853.846191,4319.487305,4007.692383,4264.102539,4178.461426,4102.051270,4022.564209,424.000000,4.000000,,,,0.000000,2.000000,4.000000,4.000000,4.000000,4.000000,4.000000,4.000000,4.000000,4.000000,4.000000,2.000000,4.000000,4.000000,1.000000,41.666668
1601229332.175228,79.000000,0.000000,3953.333252,4642.563965,4165.128418,4288.205078,3996.923096,4625.641113,3945.128174,3852.820557,4315.897461,4003.589844,4262.563965,4182.563965,4104.102539,4027.692383,44.000000,4.000000,,,,0.000000,2.000000,4.000000,4.000000,4.000000,4.000000,4.000000,4.000000,4.000000,4.000000,4.000000,2.000000,4.000000,4.000000,1.000000,41.666668
1601229332.182964,80.000000,0.000000,3952.307617,4645.128418,4163.077148,4288.717773,3989.230713,4621.538574,3949.230713,3854.871826,4308.717773,4000.000000,4266.153809,4182.051270,4097.948730,4027.692383,241.000000,4.000000,,,,0.000000,2.000000,4.000000,4.000000,4.000000,4.000000,4.000000,4.000000,4.000000,4.000000,4.000000,2.000000,4.000000,4.000000,1.000000,41.666668
1601229332.190800,81.000000,0.000000,3951.794922,4653.846191,4164.102539,4293.846191,3990.769287,4617.948730,3953.846191,3865.128174,4316.922852,4005.641113,4274.871582,4184.102539,4106.153809,4027.692383,346.000000,4.000000,,,,0.000000,2.000000,4.000000,4.000000,4.000000,4.000000,4.000000,4.000000,4.000000,4.000000,4.000000,2.000000,4.000000,4.000000,1.000000,41.666668
1601229332.198534,82.000000,0.000000,3954.358887,4648.717773,4173.333496,4290.769043,3995.384521,4619.487305,3961.025635,3877.435791,4335.384766,4013.846191,4277.436035,4186.153809,4112.307617,4027.692383,424.000000,4.000000,,,,0.000000,2.000000,4.000000,4.000000,4.000000,4.000000,4.000000,4.000000,4.000000,4.000000,4.000000,2.000000,4.000000,4.000000,1.000000,41.666668
1601229332.206368,83.000000,0.000000,3946.666748,4638.974121,4168.717773,4284.615234,3993.846191,4618.461426,3963.589844,3880.000000,4340.000000,4010.769287,4268.717773,4175.897461,4097.436035,4024.102539,44.000000,4.000000,,,,0.000000,2.000000,4.000000,4.000000,4.000000,4.000000,4.000000,4.000000,4.000000,4.000000,4.000000,2.000000,4.000000,4.000000,1.000000,41.666668
1601229332.214103,84.000000,0.000000,3935.384521,4639.487305,4160.000000,4282.563965,3993.846191,4619.487305,3966.666748,3883.076904,4340.512695,4011.281982,4265.128418,4168.205078,4093.333252,4022.051270,241.000000,4.000000,,,,0.000000,2.000000,4.000000,4.000000,4.000000,4.000000,4.000000,4.000000,4.000000,4.000000,4.000000,2.000000,4.000000,4.000000,1.000000,41.666668
1601229332.221937,85.000000,0.000000,3937.948730,4638.974121,4160.512695,4281.538574,3995.897461,4621.538574,3967.692383,3885.128174,4345.128418,4017.948730,4270.256348,4175.897461,4102.563965,4029.743652,346.000000,4.000000,,,,0.000000,2.000000,4.000000,4.000000,4.000000,4.000000,4.000000,4.000000,4.000000,4.000000,4.000000,2.000000,4.000000,4.000000,1.000000,41.666668
1601229332.229671,86.000000,0.000000,3948.205078,4644.102539,4164.102539,4283.589844,3996.923096,4625.128418,3966.153809,3877.948730,4341.025879,4017.435791,4273.333496,4183.077148,4106.666504,4029.230713,424.000000,4.000000,,,,0.000000,2.000000,4.000000,4.000000,4.000000,4.000000,4.000000,4.000000,4.000000,4.000000,4.000000,2.000000,4.000000,4.000000,1.000000,41.666668
1601229332.237504,87.000000,0.000000,3955.384521,4648.717773,4169.230957,4287.692383,3994.358887,4617.948730,3956.923096,3860.512939,4317.436035,4004.615479,4268.205078,4176.410156,4098.974121,4027.692383,44.000000,4.000000,,,,0.000000,2.000000,4.000000,4.000000,4.000000,4.000000,4.000000,4.000000,4.000000,4.000000,4.000000,2.000000,4.000000,4.000000,1.000000,41.666668
1601229332.245236,88.000000,0.000000,3955.384521,4643.589844,4171.282227,4288.205078,3993.846191,4605.641113,3947.179443,3847.179443,4293.333496,3987.692383,4260.000000,4165.641113,4084.615479,4033.846191,241.000000,4.000000,,,,0.000000,2.000000,4.000000,4.000000,4.000000,4.000000,4.000000,4.000000,4.000000,4.000000,4.000000,2.000000,4.000000,4.000000,1.000000,41.666668
1601229332.253068,89.000000,0.000000,3948.718018,4642.051270,4162.563965,4288.205078,3996.923096,4610.769043,3952.307617,3845.641113,4293.333496,3988.205078,4258.974121,4168.205078,4084.102539,4035.897461,346.000000,4.000000,,,,0.000000,2.000000,4.000000,4.000000,4.000000,4.000000,4.000000,4.000000,4.000000,4.000000,4.000000,2.000000,4.000000,4.000000,1.000000,41.666668
1601229332.260800,90.000000,0.000000,3943.076904,4642.563965,4160.000000,4285.128418,3997.948730,4623.077148,3965.641113,3853.846191,4308.205078,3998.974365,4264.102539,4177.436035,4099.487305,4035.897461,424.000000,4.000000,,,,0.000000,2.000000,4.000000,4.000000,4.000000,4.000000,4.000000,4.000000,4.000000,4.000000,4.000000,2.000000,4.000000,4.000000,1.000000,41.666668
1601229332.268632,91.000000,0.000000,3938.974365,4633.333496,4165.641113,4280.512695,3996.410156,4624.615234,3970.769287,3860.000000,4316.410156,4002.051270,4265.641113,4175.897461,4101.538574,4032.820557,44.000000,4.000000,,,,0.000000,2.000000,4.000000,4.000000,4.000000,4.000000,4.000000,4.000000,4.000000,4.000000,4.000000,2.000000,4.000000,4.000000,1.000000,41.666668
1601229332.276362,92.000000,0.000000,3938.974365,4628.205078,4157.436035,4280.000000,3991.281982,4615.384766,3963.589844,3857.948730,4311.794922,3995.897461,4258.974121,4166.666504,4084.615479,4027.179443,241.000000,4.000000,,,,0.000000,2.000000,4.000000,4.000000,4.000000,4.000000,4.000000,4.000000,4.000000,4.000000,4.000000,2.000000,4.000000,4.000000,1.000000,41.666668
1601229332.284193,93.000000,0.000000,3948.205078,4643.077148,4150.256348,4282.051270,3991.281982,4613.333496,3961.538574,3860.512939,4313.846191,3995.384521,4256.922852,4166.666504,4081.538574,4028.205078,346.000000,4.000000,,,,0.000000,2.000000,4.000000,4.000000,4.000000,4.000000,4.000000,4.000000,4.000000,4.000000,4.000000,2.000000,4.000000,4.000000,1.000000,41.666668
1601229332.291924,94.000000,0.000000,3956.923096,4655.897461,4159.487305,4285.128418,3997.948730,4616.410156,3961.025635,3868.205078,4317.948730,3997.948730,4260.000000,4170.256348,4089.230713,4030.769287,424.000000,4.000000,,,,0.000000,2.000000,4.000000,4.000000,4.000000,4.000000,4.000000,4.000000,4.000000,4.000000,4.000000,2.000000,4.000000,4.000000,1.000000,41.666668
1601229332.299862,95.000000,0.000000,3956.410156,4658.974121,4165.641113,4293.846191,4003.076904,4618.461426,3961.025635,3870.769287,4321.025879,3998.461426,4262.051270,4167.179688,4090.256348,4025.641113,44.000000,4.000000,,,,0.000000,2.000000,4.000000,4.000000,4.000000,4.000000,4.000000,4.000000,4.000000,4.000000,4.000000,2.000000,4.000000,4.000000,1.000000,41.666668
1601229332.307700,96.000000,0.000000,3948.205078,4653.846191,4160.512695,4289.743652,3996.410156,4613.846191,3957.435791,3865.641113,4319.487305,3996.410156,4260.512695,4163.077148,4085.128174,4025.128174,241.000000,4.000000,,,,0.000000,2.000000,4.000000,4.000000,4.000000,4.000000,4.000000,4.000000,4.000000,4.000000,4.000000,2.000000,4.000000,4.000000,1.000000,41.666668
1601229332.315637,97.000000,0.000000,3940.512939,4645.641113,4157.948730,4279.487305,3995.384521,4614.871582,3963.589844,3867.179443,4325.128418,4002.051270,4261.025879,4166.153809,4091.281982,4028.718018,346.000000,4.000000,,,,0.000000,2.000000,4.000000,4.000000,4.000000,4.000000,4.000000,4.000000,4.000000,4.000000,4.000000,2.000000,4.000000,4.000000,1.000000,41.666668
1601229332.323474,98.000000,0.000000,3933.846191,4634.358887,4155.897461,4276.922852,3995.384521,4621.025879,3972.307617,3870.256348,4332.820313,4009.230713,4262.563965,4169.743652,4096.922852,4026.153809,424.000000,4.000000,,,,0.000000,2.000000,4.000000,4.000000,4.000000,4.000000,4.000000,4.000000,4.000000,4.000000,4.000000,2.000000,4.000000,4.000000,1.000000,41.666668
1601229332.331410,99.000000,0.000000,3936.410156,4627.692383,4153.333496,4276.922852,3987.179443,4616.922852,3966.666748,3866.666748,4328.717773,4006.666748,4261.025879,4170.256348,4092.820557,4023.076904,44.000000,4.000000,,,,0.000000,2.000000,4.000000,4.000000,4.000000,4.000000,4.000000,4.000000,4.000000,4.000000,4.000000,2.000000,4.000000,4.000000,1.000000,41.666668
1601229332.339247,100.000000,0.000000,3942.564209,4632.820313,4155.384766,4273.333496,3984.102539,4610.769043,3956.923096,3860.000000,4319.487305,4000.000000,4260.512695,4169.230957,4089.743652,4027.179443,241.000000,4.000000,,,,0.000000,2.000000,4.000000,4.000000,4.000000,4.000000,4.000000,4.000000,4.000000,4.000000,4.000000,2.000000,4.000000,4.000000,1.000000,41.666668
1601229332.347182,101.000000,0.000000,3944.102539,4644.102539,4157.948730,4277.948730,3995.384521,4616.922852,3961.538574,3858.974365,4320.512695,4002.051270,4264.102539,4171.794922,4090.769287,4023.589844,346.000000,4.000000,,,,0.000000,2.000000,4.000000,4.000000,4.000000,4.000000,4.000000,4.000000,4.000000,4.000000,4.000000,2.000000,4.000000,4.000000,1.000000,41.666668
1601229332.355018,102.000000,0.000000,3942.051270,4644.615234,4156.410156,4283.077148,3999.487061,4623.589844,3967.179443,3864.102539,4327.692383,4007.692383,4269.230957,4180.512695,4091.794922,4027.179443,424.000000,4.000000,,,,0.000000,2.000000,4.000000,4.000000,4.000000,4.000000,4.000000,4.000000,4.000000,4.000000,4.000000,2.000000,4.000000,4.000000,1.000000,41.666668
1601229332.362952,103.000000,0.000000,3944.102539,4641.538574,4157.948730,4281.025879,3994.871826,4624.615234,3963.589844,3870.769287,4332.820313,4015.384521,4274.358887,4188.205078,4103.589844,4041.025635,44.000000,4.000000,,,,0.000000,2.000000,4.000000,4.000000,4.000000,4.000000,4.000000,4.000000,4.000000,4.000000,4.000000,2.000000,4.000000,4.000000,1.000000,41.666668
1601229332.370786,104.000000,0.000000,3943.589844,4644.102539,4158.461426,4277.948730,3995.384521,4621.025879,3961.025635,3873.333252,4335.384766,4019.487061,4276.410156,4185.128418,4113.333496,4044.102539,241.000000,4.000000,,,,0.000000,2.000000,4.000000,4.000000,4.000000,4.000000,4.000000,4.000000,4.000000,4.000000,4.000000,2.000000,4.000000,4.000000,1.000000,41.666668
1601229332.378521,105.000000,0.000000,3936.923096,4633.846191,4155.384766,4270.769043,3991.794922,4615.897461,3961.025635,3875.384521,4332.307617,4009.230713,4268.717773,4171.794922,4095.897461,4025.641113,346.000000,4.000000,,,,0.000000,2.000000,4.000000,4.000000,4.000000,4.000000,4.000000,4.000000,4.000000,4.000000,4.000000,2.000000,4.000000,4.000000,1.000000,41.666668
1601229332.386355,106.000000,0.000000,3929.743652,4623.589844,4153.333496,4265.641113,3986.666748,4615.384766,3964.102539,3879.487061,4328.205078,4003.076904,4260.000000,4163.077148,4076.410156,4011.794922,424.000000,4.000000,,,,0.000000,2.000000,4.000000,4.000000,4.000000,4.000000,4.000000,4.000000,4.000000,4.000000,4.000000,2.000000,4.000000,4.000000,1.000000,41.666668
1601229332.394089,107.000000,0.000000,3927.179443,4633.846191,4152.307617,4270.256348,3989.743652,4612.820313,3963.076904,3872.820557,4324.102539,4004.615479,4254.871582,4161.538574,4077.435791,4012.820557,44.000000,4.000000,,,,0.000000,2.000000,4.000000,4.000000,4.000000,4.000000,4.000000,4.000000,4.000000,4.000000,4.000000,2.000000,4.000000,4.000000,1.000000,41.666668
1601229332.401923,108.000000,0.000000,3934.871826,4647.179688,4153.846191,4276.410156,3993.333252,4612.307617,3960.000000,3869.230713,4323.077148,4003.076904,4255.897461,4159.487305,4079.487061,4011.281982,241.000000,4.000000,,,,0.000000,2.000000,4.000000,4.000000,4.000000,4.000000,4.000000,4.000000,4.000000,4.000000,4.000000,2.000000,4.000000,4.000000,1.000000,41.666668
1601229332.409655,109.000000,0.000000,3945.641113,4650.769043,4158.974121,4278.974121,3994.358887,4621.025879,3963.589844,3875.897461,4329.230957,4004.615479,4263.077148,4166.153809,4084.102539,4014.358887,346.000000,4.000000,,,,0.000000,2.000000,4.000000,4.000000,4.000000,4.000000,4.000000,4.000000,4.000000,4.000000,4.000000,2.000000,4.000000,4.000000,1.000000,41.666668
1601229332.417488,110.000000,0.000000,3951.794922,4658.461426,4165.128418,4286.153809,4002.051270,4633.333496,3973.846191,3877.435791,4342.563965,4023.589844,4274.871582,4181.025879,4108.717773,4024.615479,424.000000,4.000000,,,,0.000000,2.000000,4.000000,4.000000,4.000000,4.000000,4.000000,4.000000,4.000000,4.000000,4.000000,2.000000,4.000000,4.000000,1.000000,41.666668
1601229332.425220,111.000000,0.000000,3951.794922,4657.436035,4169.743652,4286.666504,4005.128174,4629.743652,3969.743652,3868.718018,4344.615234,4031.281982,4278.974121,4186.153809,4121.025879,4027.692383,44.000000,4.000000,,,,0.000000,2.000000,4.000000,4.000000,4.000000,4.000000,4.000000,4.000000,4.000000,4.000000,4.000000,2.000000,4.000000,4.000000,1.000000,41.666668
1601229332.433052,112.000000,0.000000,3945.128174,4645.641113,4167.692383,4281.538574,3998.974365,4622.563965,3960.512939,3867.179443,4338.461426,4021.538574,4273.333496,4181.538574,4110.769043,4021.025635,241.000000,4.000000,,,,0.000000,2.000000,4.000000,4.000000,4.000000,4.000000,4.000000,4.000000,4.000000,4.000000,4.000000,2.000000,4.000000,4.000000,1.000000,41.666668
1601229332.440784,113.000000,0.000000,3934.871826,4643.077148,4156.922852,4281.025879,3992.307617,4618.461426,3953.846191,3861.025635,4325.128418,4006.153809,4264.102539,4172.307617,4095.897461,4016.923096,346.000000,4.000000,,,,0.000000,2.000000,4.000000,4.000000,4.000000,4.000000,4.000000,4.000000,4.000000,4.000000,4.000000,2.000000,4.000000,4.000000,1.000000,41.666668
1601229332.448615,114.000000,0.000000,3932.307617,4649.230957,4151.282227,4284.615234,3995.384521,4616.410156,3952.820557,3851.281982,4311.794922,3993.333252,4254.358887,4165.128418,4080.000000,4014.358887,424.000000,4.000000,,,,0.000000,2.000000,4.000000,4.000000,4.000000,4.000000,4.000000,4.000000,4.000000,4.000000,4.000000,2.000000,4.000000,4.000000,1.000000,41.666668
1601229332.456347,115.000000,0.000000,3930.769287,4639.487305,4154.358887,4275.384766,3998.974365,4618.461426,3961.025635,3858.461426,4312.307617,3987.179443,4247.692383,4165.128418,4065.641113,4009.743652,44.000000,4.000000,,,,0.000000,2.000000,4.000000,4.000000,4.000000,4.000000,4.000000,4.000000,4.000000,4.000000,4.000000,2.000000,4.000000,4.000000,1.000000,41.666668
1601229332.464178,116.000000,0.000000,3922.564209,4622.563965,4149.230957,4262.563965,3993.333252,4624.102539,3975.384521,3877.435791,4329.230957,3992.307617,4247.692383,4162.563965,4068.718018,4005.128174,241.000000,4.000000,,,,0.000000,2.000000,4.000000,4.000000,4.000000,4.000000,4.000000,4.000000,4.000000,4.000000,4.000000,2.000000,4.000000,4.000000,1.000000,41.666668
1601229332.471908,117.000000,0.000000,3916.923096,4611.794922,4137.948730,4254.358887,3984.102539,4621.538574,3978.974365,3887.179443,4342.563965,4002.051270,4252.307617,4159.487305,4076.410156,4007.179443,346.000000,4.000000,,,,0.000000,2.000000,4.000000,4.000000,4.000000,4.000000,4.000000,4.000000,4.000000,4.000000,4.000000,2.000000,4.000000,4.000000,1.000000,41.666668
1601229332.479738,118.000000,0.000000,3923.076904,4610.256348,4143.077148,4251.794922,3984.615479,4621.025879,3977.435791,3891.281982,4351.282227,4014.358887,4257.436035,4168.717773,4080.512939,4011.281982,424.000000,4.000000,,,,0.000000,2.000000,4.000000,4.000000,4.000000,4.000000,4.000000,4.000000,4.000000,4.000000,4.000000,2.000000,4.000000,4.000000,1.000000,41.666668
1601229332.487467,119.000000,0.000000,3934.871826,4621.025879,4154.871582,4260.000000,3989.743652,4626.666504,3980.000000,3892.307617,4361.025879,4025.641113,4262.563965,4181.025879,4090.256348,4012.307617,44.000000,4.000000,,,,0.000000,2.000000,4.000000,4.000000,4.000000,4.000000,4.000000,4.000000,4.000000,4.000000,4.000000,2.000000,4.000000,4.000000,1.000000,41.666668
1601229332.495404,120.000000,0.000000,3943.076904,4638.974121,4162.563965,4275.897461,3997.948730,4630.769043,3980.512939,3890.256348,4365.641113,4034.358887,4269.230957,4183.589844,4102.563965,4010.256348,241.000000,4.000000,,,,0.000000,2.000000,4.000000,4.000000,4.000000,4.000000,4.000000,4.000000,4.000000,4.000000,4.000000,2.000000,4.000000,4.000000,1.000000,41.666668
1601229332.503241,121.000000,0.000000,3944.102539,4644.615234,4163.589844,4283.077148,4006.153809,4630.256348,3973.846191,3884.615479,4360.512695,4034.871826,4269.230957,4181.538574,4099.487305,4012.820557,346.000000,4.000000,,,,0.000000,2.000000,4.000000,4.000000,4.000000,4.000000,4.000000,4.000000,4.000000,4.000000,4.000000,2.000000,4.000000,4.000000,1.000000,41.666668
1601229332.511177,122.000000,0.000000,3939.487061,4637.436035,4157.948730,4274.871582,3998.974365,4625.128418,3962.051270,3873.333252,4345.128418,4023.076904,4261.538574,4176.410156,4087.179443,4016.923096,424.000000,4.000000,,,,0.000000,2.000000,4.000000,4.000000,4.000000,4.000000,4.000000,4.000000,4.000000,4.000000,4.000000,2.000000,4.000000,4.000000,1.000000,41.666668
1601229332.519012,123.000000,0.000000,3938.974365,4639.487305,4152.307617,4271.282227,3991.281982,4620.000000,3955.897461,3862.564209,4330.769043,4012.820557,4259.487305,4171.282227,4087.179443,4016.923096,44.000000,4.000000,,,,0.000000,2.000000,4.000000,4.000000,4.000000,4.000000,4.000000,4.000000,4.000000,4.000000,4.000000,2.000000,4.000000,4.000000,1.000000,41.666668
1601229332.526948,124.000000,0.000000,3942.051270,4647.179688,4154.871582,4277.436035,3995.897461,4620.512695,3956.410156,3859.487061,4324.615234,4008.205078,4260.512695,4170.256348,4090.256348,4015.384521,241.000000,4.000000,,,,0.000000,2.000000,4.000000,4.000000,4.000000,4.000000,4.000000,4.000000,4.000000,4.000000,4.000000,2.000000,4.000000,4.000000,1.000000,41.666668
1601229332.534783,125.000000,0.000000,3941.025635,4641.025879,4158.974121,4280.512695,4002.051270,4625.128418,3961.538574,3865.128174,4325.128418,4006.153809,4260.000000,4169.230957,4086.153809,4010.769287,346.000000,4.000000,,,,0.000000,2.000000,4.000000,4.000000,4.000000,4.000000,4.000000,4.000000,4.000000,4.000000,4.000000,2.000000,4.000000,4.000000,1.000000,41.666668
1601229332.542718,126.000000,0.000000,3931.281982,4621.538574,4152.820313,4270.769043,3993.333252,4621.025879,3963.589844,3866.666748,4320.000000,3996.923096,4256.410156,4164.102539,4075.897461,4006.153809,424.000000,4.000000,,,,0.000000,2.000000,4.000000,4.000000,4.000000,4.000000,4.000000,4.000000,4.000000,4.000000,4.000000,2.000000,4.000000,4.000000,1.000000,41.666668
1601229332.550552,127.000000,0.000000,3924.615479,4618.461426,4146.666504,4266.666504,3986.666748,4613.333496,3963.076904,3868.718018,4320.000000,3994.871826,4252.820313,4158.461426,4070.256348,4004.102539,44.000000,4.000000,,,,0.000000,2.000000,4.000000,4.000000,4.000000,4.000000,4.000000,4.000000,4.000000,4.000000,4.000000,2.000000,4.000000,4.000000,1.000000,41.666668
1601229332.558286,128.000000,0.000000,3925.641113,4631.282227,4149.230957,4272.307617,3992.307617,4611.282227,3963.589844,3875.897461,4329.230957,4002.564209,4248.717773,4154.358887,4068.718018,4004.102539,241.000000,4.000000,,,,0.000000,2.000000,4.000000,4.000000,4.000000,4.000000,4.000000,4.000000,4.000000,4.000000,4.000000,2.000000,4.000000,4.000000,1.000000,41.666668
1601229332.566119,0.000000,0.000000,3927.692383,4641.538574,4154.358887,4278.974121,4002.564209,4618.461426,3968.205078,3887.179443,4344.102539,4013.333252,4252.307617,4159.487305,4075.897461,4003.076904,376.000000,4.000000,,,,0.000000,2.000000,4.000000,4.000000,4.000000,4.000000,4.000000,4.000000,4.000000,4.000000,4.000000,2.000000,4.000000,4.000000,1.000000,41.666668
1601229332.573853,1.000000,0.000000,3927.179443,4636.922852,4154.358887,4277.436035,4000.000000,4621.538574,3969.230713,3888.718018,4349.743652,4016.923096,4259.487305,4168.205078,4084.615479,4009.743652,431.000000,4.000000,,,,0.000000,2.000000,4.000000,4.000000,4.000000,4.000000,4.000000,4.000000,4.000000,4.000000,4.000000,2.000000,4.000000,4.000000,1.000000,41.666668
1601229332.581687,2.000000,0.000000,3932.820557,4637.436035,4154.871582,4275.384766,3997.948730,4624.102539,3970.769287,3884.102539,4350.769043,4022.051270,4263.077148,4174.871582,4095.897461,4012.307617,383.000000,4.000000,,,,0.000000,2.000000,4.000000,4.000000,4.000000,4.000000,4.000000,4.000000,4.000000,4.000000,4.000000,2.000000,4.000000,4.000000,1.000000,41.666668
1601229332.589419,3.000000,0.000000,3938.461426,4643.077148,4158.974121,4278.461426,4002.564209,4627.692383,3973.333252,3883.589844,4352.307617,4029.743652,4269.230957,4178.974121,4109.743652,4012.307617,431.000000,4.000000,,,,0.000000,2.000000,4.000000,4.000000,4.000000,4.000000,4.000000,4.000000,4.000000,4.000000,4.000000,2.000000,4.000000,4.000000,1.000000,41.666668
1601229332.597252,4.000000,0.000000,3941.538574,4635.384766,4165.128418,4280.512695,4003.589844,4629.743652,3973.333252,3883.076904,4353.846191,4033.846191,4276.410156,4184.615234,4116.922852,4014.358887,457.000000,4.000000,,,,0.000000,2.000000,4.000000,4.000000,4.000000,4.000000,4.000000,4.000000,4.000000,4.000000,4.000000,2.000000,4.000000,4.000000,1.000000,41.666668
1601229332.604984,5.000000,0.000000,3945.641113,4623.077148,4168.205078,4275.897461,4001.025635,4628.717773,3970.256348,3877.948730,4348.717773,4030.256348,4276.922852,4187.692383,4111.794922,4017.948730,436.000000,4.000000,,,,0.000000,2.000000,4.000000,4.000000,4.000000,4.000000,4.000000,4.000000,4.000000,4.000000,4.000000,2.000000,4.000000,4.000000,1.000000,41.666668
1601229332.612815,6.000000,0.000000,3948.205078,4624.615234,4165.641113,4276.922852,4002.051270,4625.128418,3967.692383,3871.281982,4334.871582,4015.897461,4274.871582,4184.102539,4101.025879,4018.974365,446.000000,4.000000,,,,0.000000,2.000000,4.000000,4.000000,4.000000,4.000000,4.000000,4.000000,4.000000,4.000000,4.000000,2.000000,4.000000,4.000000,1.000000,41.666668
1601229332.620547,7.000000,0.000000,3939.487061,4629.230957,4157.436035,4282.051270,3998.974365,4620.000000,3965.641113,3867.179443,4325.128418,4006.153809,4270.256348,4178.461426,4094.871826,4018.974365,352.000000,4.000000,,,,0.000000,2.000000,4.000000,4.000000,4.000000,4.000000,4.000000,4.000000,4.000000,4.000000,4.000000,2.000000,4.000000,4.000000,1.000000,41.666668
1601229332.628379,8.000000,0.000000,3927.179443,4615.384766,4152.307617,4268.205078,3985.641113,4611.282227,3962.051270,3865.128174,4317.948730,3998.974365,4261.538574,4167.179688,4081.538574,4015.384521,404.000000,4.000000,,,,0.000000,2.000000,4.000000,4.000000,4.000000,4.000000,4.000000,4.000000,4.000000,4.000000,4.000000,2.000000,4.000000,4.000000,1.000000,41.666668
1601229332.636110,9.000000,0.000000,3920.000000,4601.025879,4150.769043,4256.922852,3977.435791,4607.692383,3963.589844,3868.718018,4311.794922,3985.128174,4251.794922,4155.384766,4063.076904,4010.256348,407.000000,4.000000,,,,0.000000,2.000000,4.000000,4.000000,4.000000,4.000000,4.000000,4.000000,4.000000,4.000000,4.000000,2.000000,4.000000,4.000000,1.000000,41.666668
1601229332.643940,10.000000,0.000000,3920.512939,4611.794922,4151.282227,4274.358887,3983.076904,4617.436035,3969.230713,3876.410156,4316.922852,3977.435791,4246.153809,4152.307617,4062.564209,4010.769287,427.000000,4.000000,,,,0.000000,2.000000,4.000000,4.000000,4.000000,4.000000,4.000000,4.000000,4.000000,4.000000,4.000000,2.000000,4.000000,4.000000,1.000000,41.666668
1601229332.651671,11.000000,0.000000,3925.128174,4628.717773,4152.820313,4286.153809,3991.281982,4623.589844,3972.820557,3881.538574,4329.230957,3985.128174,4248.717773,4151.794922,4075.384521,4011.794922,50.000000,4.000000,,,,0.000000,2.000000,4.000000,4.000000,4.000000,4.000000,4.000000,4.000000,4.000000,4.000000,4.000000,2.000000,4.000000,4.000000,1.000000,41.666668
1601229332.659608,12.000000,0.000000,3927.692383,4626.153809,4151.794922,4277.436035,3992.307617,4619.487305,3969.743652,3882.051270,4336.410156,3993.333252,4255.897461,4148.205078,4076.923096,4013.846191,242.000000,4.000000,,,,0.000000,2.000000,4.000000,4.000000,4.000000,4.000000,4.000000,4.000000,4.000000,4.000000,4.000000,2.000000,4.000000,4.000000,1.000000,41.666668
1601229332.667445,13.000000,0.000000,3930.769287,4624.102539,4151.794922,4280.000000,4000.512939,4631.282227,3977.435791,3888.205078,4352.307617,4010.256348,4265.641113,4153.846191,4086.666748,4020.512939,346.000000,4.000000,,,,0.000000,2.000000,4.000000,4.000000,4.000000,4.000000,4.000000,4.000000,4.000000,4.000000,4.000000,2.000000,4.000000,4.000000,1.000000,41.666668
1601229332.675382,14.000000,0.000000,3932.820557,4625.128418,4152.820313,4284.615234,4006.666748,4640.512695,3983.076904,3890.256348,4362.051270,4023.076904,4271.794922,4160.000000,4103.589844,4025.128174,427.000000,4.000000,,,,0.000000,2.000000,4.000000,4.000000,4.000000,4.000000,4.000000,4.000000,4.000000,4.000000,4.000000,2.000000,4.000000,4.000000,1.000000,41.666668
1601229332.683219,15.000000,0.000000,3927.179443,4614.871582,4149.743652,4276.410156,3998.974365,4625.641113,3967.692383,3878.974365,4348.717773,4012.820557,4269.743652,4156.410156,4097.436035,4018.974365,50.000000,4.000000,,,,0.000000,2.000000,4.000000,4.000000,4.000000,4.000000,4.000000,4.000000,4.000000,4.000000,4.000000,2.000000,4.000000,4.000000,1.000000,41.666668
1601229332.691154,16.000000,0.000000,3925.128174,4608.205078,4148.205078,4273.333496,3992.820557,4616.410156,3953.846191,3866.153809,4332.820313,3997.435791,4260.512695,4153.846191,4082.564209,4013.333252,0.000000,4.000000,,,,0.000000,2.000000,4.000000,4.000000,4.000000,4.000000,4.000000,4.000000,4.000000,4.000000,4.000000,2.000000,4.000000,4.000000,1.000000,41.666668
1601229332.698990,17.000000,0.000000,3934.871826,4623.589844,4157.948730,4285.641113,4000.512939,4628.205078,3966.666748,3870.769287,4338.974121,4001.025635,4261.538574,4156.922852,4090.256348,4018.974365,0.000000,4.000000,,,,0.000000,2.000000,4.000000,4.000000,4.000000,4.000000,4.000000,4.000000,4.000000,4.000000,4.000000,2.000000,4.000000,4.000000,1.000000,41.666668
1601229332.706925,18.000000,0.000000,3935.384521,4627.692383,4163.077148,4286.153809,3997.948730,4631.282227,3977.948730,3875.384521,4343.589844,4003.076904,4266.153809,4160.000000,4096.410156,4027.179443,0.000000,4.000000,,,,0.000000,2.000000,4.000000,4.000000,4.000000,4.000000,4.000000,4.000000,4.000000,4.000000,4.000000,2.000000,4.000000,4.000000,1.000000,41.666668
1601229332.714761,19.000000,0.000000,3926.153809,4614.358887,4156.922852,4271.794922,3986.153809,4623.077148,3973.333252,3872.820557,4333.846191,3994.358887,4259.487305,4159.487305,4086.666748,4022.564209,0.000000,4.000000,,,,0.000000,2.000000,4.000000,4.000000,4.000000,4.000000,4.000000,4.000000,4.000000,4.000000,4.000000,2.000000,4.000000,4.000000,1.000000,41.666668
1601229332.722695,20.000000,0.000000,3924.615479,4605.128418,4153.846191,4261.025879,3978.974365,4615.897461,3971.281982,3875.897461,4327.179688,3988.205078,4254.871582,4155.897461,4081.025635,4019.487061,0.000000,4.000000,,,,0.000000,2.000000,4.000000,4.000000,4.000000,4.000000,4.000000,4.000000,4.000000,4.000000,4.000000,2.000000,4.000000,4.000000,1.000000,41.666668
1601229332.730530,21.000000,0.000000,3929.230713,4606.666504,4156.410156,4268.717773,3983.076904,4616.922852,3978.974365,3884.102539,4337.436035,3996.410156,4267.179688,4158.974121,4094.871826,4023.076904,0.000000,4.000000,,,,0.000000,2.000000,4.000000,4.000000,4.000000,4.000000,4.000000,4.000000,4.000000,4.000000,4.000000,2.000000,4.000000,4.000000,1.000000,41.666668
1601229332.738263,22.000000,0.000000,3929.230713,4608.717773,4154.871582,4277.436035,3985.128174,4620.512695,3977.948730,3886.666748,4348.717773,4007.692383,4274.358887,4167.692383,4103.589844,4027.692383,0.000000,4.000000,,,,0.000000,2.000000,4.000000,4.000000,4.000000,4.000000,4.000000,4.000000,4.000000,4.000000,4.000000,2.000000,4.000000,4.000000,1.000000,41.666668
1601229332.746097,23.000000,0.000000,3933.846191,4614.358887,4157.436035,4273.333496,3984.615479,4620.512695,3970.256348,3888.718018,4348.205078,4010.256348,4269.743652,4171.794922,4097.948730,4024.615479,0.000000,4.000000,,,,0.000000,2.000000,4.000000,4.000000,4.000000,4.000000,4.000000,4.000000,4.000000,4.000000,4.000000,2.000000,4.000000,4.000000,1.000000,41.666668
1601229332.753830,24.000000,0.000000,3936.923096,4616.922852,4160.000000,4269.230957,3989.743652,4615.384766,3966.666748,3886.153809,4346.153809,4010.769287,4271.794922,4171.794922,4098.461426,4021.538574,0.000000,4.000000,,,,0.000000,2.000000,4.000000,4.000000,4.000000,4.000000,4.000000,4.000000,4.000000,4.000000,4.000000,2.000000,4.000000,4.000000,1.000000,41.666668
1601229332.761663,25.000000,0.000000,3926.666748,4609.743652,4149.743652,4269.230957,3994.871826,4609.743652,3961.538574,3874.871826,4340.000000,4006.153809,4273.846191,4167.692383,4103.589844,4021.538574,0.000000,4.000000,,,,0.000000,2.000000,4.000000,4.000000,4.000000,4.000000,4.000000,4.000000,4.000000,4.000000,4.000000,2.000000,4.000000,4.000000,1.000000,41.666668
1601229332.769396,26.000000,0.000000,3919.487061,4611.794922,4143.077148,4268.717773,3995.384521,4611.282227,3954.871826,3869.743652,4330.769043,3998.974365,4264.615234,4158.461426,4094.871826,4019.487061,0.000000,4.000000,,,,0.000000,2.000000,4.000000,4.000000,4.000000,4.000000,4.000000,4.000000,4.000000,4.000000,4.000000,2.000000,4.000000,4.000000,1.000000,41.666668
1601229332.777228,27.000000,0.000000,3924.102539,4620.000000,4149.743652,4267.179688,3993.333252,4614.871582,3954.358887,3869.743652,4325.128418,3994.871826,4254.358887,4154.871582,4080.512939,4018.461426,0.000000,4.000000,,,,0.000000,2.000000,4.000000,4.000000,4.000000,4.000000,4.000000,4.000000,4.000000,4.000000,4.000000,2.000000,4.000000,4.000000,1.000000,41.666668
1601229332.784960,28.000000,0.000000,3927.692383,4620.000000,4154.358887,4273.333496,3995.384521,4618.461426,3963.076904,3871.794922,4334.871582,4002.564209,4263.077148,4162.051270,4090.769287,4019.487061,0.000000,4.000000,,,,0.000000,2.000000,4.000000,4.000000,4.000000,4.000000,4.000000,4.000000,4.000000,4.000000,4.000000,2.000000,4.000000,4.000000,1.000000,41.666668
1601229332.792792,29.000000,0.000000,3927.179443,4618.974121,4151.794922,4275.897461,3996.923096,4624.102539,3971.794922,3881.025635,4346.153809,4011.794922,4277.436035,4170.769043,4107.179688,4025.641113,0.000000,4.000000,,,,0.000000,2.000000,4.000000,4.000000,4.000000,4.000000,4.000000,4.000000,4.000000,4.000000,4.000000,2.000000,4.000000,4.000000,1.000000,41.666668
1601229332.800565,30.000000,0.000000,3926.666748,4623.077148,4152.820313,4272.820313,3998.461426,4626.153809,3979.487061,3888.718018,4348.717773,4013.333252,4273.333496,4170.256348,4103.589844,4031.281982,0.000000,4.000000,,,,0.000000,2.000000,4.000000,4.000000,4.000000,4.000000,4.000000,4.000000,4.000000,4.000000,4.000000,2.000000,4.000000,4.000000,1.000000,41.666668
1601229332.808438,31.000000,0.000000,3923.589844,4617.948730,4154.358887,4271.794922,3996.410156,4617.948730,3978.974365,3884.615479,4344.615234,4004.102539,4258.974121,4165.128418,4086.153809,4027.692383,0.000000,4.000000,,,,0.000000,2.000000,4.000000,4.000000,4.000000,4.000000,4.000000,4.000000,4.000000,4.000000,4.000000,2.000000,4.000000,4.000000,1.000000,41.666668
1601229332.816311,32.000000,0.000000,3923.076904,4615.897461,4156.922852,4274.871582,3994.871826,4618.461426,3977.435791,3884.102539,4345.641113,4003.076904,4261.025879,4167.179688,4085.128174,4021.025635,0.000000,4.000000,,,,0.000000,2.000000,4.000000,4.000000,4.000000,4.000000,4.000000,4.000000,4.000000,4.000000,4.000000,2.000000,4.000000,4.000000,1.000000,41.666668
1601229332.824184,33.000000,0.000000,3929.743652,4617.948730,4162.563965,4273.846191,3988.205078,4621.538574,3974.358887,3886.666748,4344.615234,4008.718018,4269.230957,4169.743652,4095.897461,4028.718018,0.000000,4.000000,,,,0.000000,2.000000,4.000000,4.000000,4.000000,4.000000,4.000000,4.000000,4.000000,4.000000,4.000000,2.000000,4.000000,4.000000,1.000000,41.666668
1601229332.832057,34.000000,0.000000,3934.871826,4618.461426,4162.563965,4275.897461,3985.128174,4616.922852,3969.743652,3884.102539,4345.641113,4011.794922,4269.743652,4172.820313,4105.128418,4034.871826,0.000000,4.000000,,,,0.000000,2.000000,4.000000,4.000000,4.000000,4.000000,4.000000,4.000000,4.000000,4.000000,4.000000,2.000000,4.000000,4.000000,1.000000,41.666668
1601229332.839930,35.000000,0.000000,3939.487061,4628.205078,4161.025879,4285.128418,3997.435791,4621.538574,3969.230713,3887.692383,4356.410156,4019.487061,4277.436035,4182.051270,4116.922852,4032.820557,0.000000,4.000000,,,,0.000000,2.000000,4.000000,4.000000,4.000000,4.000000,4.000000,4.000000,4.000000,4.000000,4.000000,2.000000,4.000000,4.000000,1.000000,41.666668
1601229332.847803,36.000000,0.000000,3942.051270,4640.000000,4162.563965,4289.230957,4009.743652,4632.307617,3974.871826,3895.384521,4366.666504,4033.333252,4285.128418,4186.153809,4124.102539,4032.307617,0.000000,4.000000,,,,0.000000,2.000000,4.000000,4.000000,4.000000,4.000000,4.000000,4.000000,4.000000,4.000000,4.000000,2.000000,4.000000,4.000000,1.000000,41.666668
1601229332.855539,37.000000,0.000000,3934.358887,4635.384766,4157.948730,4281.538574,4004.615479,4629.743652,3974.871826,3891.281982,4363.589844,4033.333252,4278.461426,4174.871582,4111.282227,4037.435791,0.000000,4.000000,,,,0.000000,2.000000,4.000000,4.000000,4.000000,4.000000,4.000000,4.000000,4.000000,4.000000,4.000000,2.000000,4.000000,4.000000,1.000000,41.666668
1601229332.863483,38.000000,0.000000,3926.153809,4628.717773,4151.282227,4274.871582,3998.461426,4624.615234,3971.281982,3883.589844,4353.846191,4021.538574,4268.205078,4164.615234,4096.922852,4032.820557,0.000000,4.000000,,,,0.000000,2.000000,4.000000,4.000000,4.000000,4.000000,4.000000,4.000000,4.000000,4.000000,4.000000,2.000000,4.000000,4.000000,1.000000,41.666668
1601229332.871326,39.000000,0.000000,3927.179443,4620.000000,4152.820313,4267.179688,3994.871826,4626.153809,3973.333252,3882.051270,4344.615234,4013.333252,4265.128418,4165.641113,4096.922852,4024.615479,0.000000,4.000000,,,,0.000000,2.000000,4.000000,4.000000,4.000000,4.000000,4.000000,4.000000,4.000000,4.000000,4.000000,2.000000,4.000000,4.000000,1.000000,41.666668
1601229332.879170,40.000000,0.000000,3930.256348,4607.179688,4157.948730,4256.922852,3988.718018,4626.153809,3981.538574,3883.076904,4341.538574,4011.794922,4262.563965,4169.230957,4095.384521,4025.128174,0.000000,4.000000,,,,0.000000,2.000000,4.000000,4.000000,4.000000,4.000000,4.000000,4.000000,4.000000,4.000000,4.000000,2.000000,4.000000,4.000000,1.000000,41.666668
1601229332.887105,41.000000,0.000000,3936.410156,4613.333496,4156.922852,4261.025879,3991.281982,4621.025879,3984.102539,3886.153809,4344.102539,4014.871826,4263.077148,4174.358887,4094.358887,4028.205078,0.000000,4.000000,,,,0.000000,2.000000,4.000000,4.000000,4.000000,4.000000,4.000000,4.000000,4.000000,4.000000,4.000000,2.000000,4.000000,4.000000,1.000000,41.666668
1601229332.894939,42.000000,0.000000,3945.128174,4628.717773,4162.051270,4271.794922,3994.871826,4617.948730,3981.025635,3888.718018,4343.589844,4013.846191,4266.666504,4176.922852,4098.974121,4027.692383,0.000000,4.000000,,,,0.000000,2.000000,4.000000,4.000000,4.000000,4.000000,4.000000,4.000000,4.000000,4.000000,4.000000,2.000000,4.000000,4.000000,1.000000,41.666668
1601229332.902674,43.000000,0.000000,3946.153809,4631.282227,4169.230957,4276.922852,3989.743652,4618.461426,3977.435791,3890.256348,4344.615234,4011.281982,4266.153809,4177.436035,4097.436035,4026.153809,0.000000,4.000000,,,,0.000000,2.000000,4.000000,4.000000,4.000000,4.000000,4.000000,4.000000,4.000000,4.000000,4.000000,2.000000,4.000000,4.000000,1.000000,41.666668
1601229332.910508,44.000000,0.000000,3942.051270,4628.205078,4164.102539,4277.436035,3984.102539,4610.769043,3972.307617,3888.718018,4343.589844,4009.230713,4262.051270,4176.922852,4088.718018,4028.205078,0.000000,4.000000,,,,0.000000,2.000000,4.000000,4.000000,4.000000,4.000000,4.000000,4.000000,4.000000,4.000000,4.000000,2.000000,4.000000,4.000000,1.000000,41.666668
1601229332.918242,45.000000,0.000000,3940.000000,4627.692383,4156.922852,4274.358887,3988.205078,4605.128418,3968.718018,3885.128174,4344.102539,4010.256348,4265.641113,4175.384766,4086.666748,4027.179443,0.000000,4.000000,,,,0.000000,2.000000,4.000000,4.000000,4.000000,4.000000,4.000000,4.000000,4.000000,4.000000,4.000000,2.000000,4.000000,4.000000,1.000000,41.666668
1601229332.926075,46.000000,0.000000,3940.512939,4626.666504,4161.538574,4271.282227,3991.281982,4610.769043,3964.102539,3882.564209,4344.615234,4011.794922,4270.256348,4174.358887,4092.307617,4026.153809,0.000000,4.000000,,,,0.000000,2.000000,4.000000,4.000000,4.000000,4.000000,4.000000,4.000000,4.000000,4.000000,4.000000,2.000000,4.000000,4.000000,1.000000,41.666668
1601229332.933808,47.000000,0.000000,3945.641113,4634.358887,4165.641113,4282.051270,3994.358887,4620.000000,3963.076904,3885.641113,4348.205078,4014.871826,4272.307617,4175.384766,4097.436035,4024.615479,0.000000,4.000000,,,,0.000000,2.000000,4.000000,4.000000,4.000000,4.000000,4.000000,4.000000,4.000000,4.000000,4.000000,2.000000,4.000000,4.000000,1.000000,41.666668
1601229332.941641,48.000000,0.000000,3946.666748,4639.487305,4158.461426,4286.666504,3996.410156,4617.948730,3961.025635,3882.564209,4346.153809,4011.281982,4269.230957,4171.282227,4091.794922,4024.615479,0.000000,4.000000,,,,0.000000,2.000000,4.000000,4.000000,4.000000,4.000000,4.000000,4.000000,4.000000,4.000000,4.000000,2.000000,4.000000,4.000000,1.000000,41.666668
1601229332.949374,49.000000,0.000000,3938.461426,4643.589844,4150.769043,4283.589844,4001.538574,4618.974121,3961.538574,3876.923096,4341.538574,4006.666748,4264.102539,4166.666504,4085.641113,4022.051270,0.000000,4.000000,,,,0.000000,2.000000,4.000000,4.000000,4.000000,4.000000,4.000000,4.000000,4.000000,4.000000,4.000000,2.000000,4.000000,4.000000,1.000000,41.666668
1601229332.957206,50.000000,0.000000,3929.743652,4645.641113,4146.666504,4284.102539,4004.102539,4617.436035,3957.435791,3876.410156,4335.897461,4000.512939,4257.948730,4166.153809,4078.974365,4014.871826,0.000000,4.000000,,,,0.000000,2.000000,4.000000,4.000000,4.000000,4.000000,4.000000,4.000000,4.000000,4.000000,4.000000,2.000000,4.000000,4.000000,1.000000,41.666668
1601229332.964938,51.000000,0.000000,3926.666748,4634.358887,4148.717773,4277.948730,3996.410156,4609.743652,3956.410156,3878.974365,4328.717773,3994.358887,4255.384766,4165.641113,4073.333252,4016.923096,0.000000,4.000000,,,,0.000000,2.000000,4.000000,4.000000,4.000000,4.000000,4.000000,4.000000,4.000000,4.000000,4.000000,2.000000,4.000000,4.000000,1.000000,41.666668
1601229332.972770,52.000000,0.000000,3927.179443,4624.102539,4154.871582,4272.820313,3988.718018,4610.256348,3962.051270,3878.974365,4326.666504,3993.846191,4257.436035,4164.615234,4072.820557,4033.846191,0.000000,4.000000,,,,0.000000,2.000000,4.000000,4.000000,4.000000,4.000000,4.000000,4.000000,4.000000,4.000000,4.000000,2.000000,4.000000,4.000000,1.000000,41.666668
1601229332.980500,53.000000,0.000000,3930.769287,4640.000000,4158.461426,4281.538574,3995.384521,4620.512695,3967.692383,3882.051270,4332.307617,3997.435791,4257.436035,4167.179688,4076.923096,4040.512939,0.000000,4.000000,,,,0.000000,2.000000,4.000000,4.000000,4.000000,4.000000,4.000000,4.000000,4.000000,4.000000,4.000000,2.000000,4.000000,4.000000,1.000000,41.666668
1601229332.988330,54.000000,0.000000,3930.769287,4641.025879,4159.487305,4281.538574,3998.974365,4617.948730,3963.076904,3880.512939,4333.333496,3995.384521,4255.897461,4171.282227,4073.846191,4035.897461,0.000000,4.000000,,,,0.000000,2.000000,4.000000,4.000000,4.000000,4.000000,4.000000,4.000000,4.000000,4.000000,4.000000,2.000000,4.000000,4.000000,1.000000,41.666668
1601229332.996061,55.000000,0.000000,3924.615479,4618.974121,4155.897461,4271.794922,3988.718018,4603.589844,3951.794922,3874.358887,4323.077148,3988.718018,4252.820313,4169.230957,4069.743652,4034.871826,0.000000,4.000000,,,,0.000000,2.000000,4.000000,4.000000,4.000000,4.000000,4.000000,4.000000,4.000000,4.000000,4.000000,2.000000,4.000000,4.000000,1.000000,41.666668
1601229333.003891,56.000000,0.000000,3920.000000,4620.512695,4148.717773,4270.256348,3982.051270,4595.384766,3944.102539,3869.743652,4314.871582,3983.076904,4247.692383,4161.025879,4065.128174,4030.769287,0.000000,4.000000,,,,0.000000,2.000000,4.000000,4.000000,4.000000,4.000000,4.000000,4.000000,4.000000,4.000000,4.000000,2.000000,4.000000,4.000000,1.000000,41.666668
1601229333.011620,57.000000,0.000000,3925.641113,4634.358887,4149.743652,4269.230957,3984.102539,4602.051270,3945.128174,3870.769287,4318.974121,3985.641113,4251.282227,4164.102539,4066.153809,4020.000000,0.000000,4.000000,,,,0.000000,2.000000,4.000000,4.000000,4.000000,4.000000,4.000000,4.000000,4.000000,4.000000,4.000000,2.000000,4.000000,4.000000,1.000000,41.666668
1601229333.019449,58.000000,0.000000,3930.769287,4626.666504,4154.871582,4269.230957,3986.153809,4611.794922,3956.410156,3876.923096,4329.743652,3997.948730,4266.666504,4180.000000,4084.102539,4014.871826,0.000000,4.000000,,,,0.000000,2.000000,4.000000,4.000000,4.000000,4.000000,4.000000,4.000000,4.000000,4.000000,4.000000,2.000000,4.000000,4.000000,1.000000,41.666668
1601229333.027179,59.000000,0.000000,3924.615479,4613.333496,4152.307617,4263.077148,3980.512939,4603.077148,3958.461426,3874.358887,4327.179688,3996.410156,4265.641113,4178.974121,4083.589844,4012.820557,0.000000,4.000000,,,,0.000000,2.000000,4.000000,4.000000,4.000000,4.000000,4.000000,4.000000,4.000000,4.000000,4.000000,2.000000,4.000000,4.000000,1.000000,41.666668
1601229333.035009,60.000000,0.000000,3927.692383,4616.410156,4154.871582,4255.384766,3977.948730,4595.897461,3952.820557,3870.256348,4317.436035,3984.102539,4252.820313,4166.153809,4068.718018,4010.769287,0.000000,4.000000,,,,0.000000,2.000000,4.000000,4.000000,4.000000,4.000000,4.000000,4.000000,4.000000,4.000000,4.000000,2.000000,4.000000,4.000000,1.000000,41.666668
1601229333.042737,61.000000,0.000000,3940.000000,4627.692383,4161.025879,4270.769043,3983.076904,4610.256348,3957.948730,3875.384521,4318.461426,3984.615479,4252.820313,4169.230957,4069.230713,4014.871826,0.000000,4.000000,,,,0.000000,2.000000,4.000000,4.000000,4.000000,4.000000,4.000000,4.000000,4.000000,4.000000,4.000000,2.000000,4.000000,4.000000,1.000000,41.666668
1601229333.050673,62.000000,0.000000,3935.897461,4638.461426,4153.333496,4288.717773,3989.743652,4620.000000,3965.128174,3879.487061,4324.102539,3989.230713,4257.948730,4174.358887,4072.820557,4014.358887,0.000000,4.000000,,,,0.000000,2.000000,4.000000,4.000000,4.000000,4.000000,4.000000,4.000000,4.000000,4.000000,4.000000,2.000000,4.000000,4.000000,1.000000,41.666668
1601229333.058509,63.000000,0.000000,3922.051270,4632.820313,4140.512695,4269.230957,3983.589844,4606.153809,3953.846191,3869.230713,4312.820313,3979.487061,4248.717773,4162.563965,4065.641113,4008.718018,0.000000,4.000000,,,,0.000000,2.000000,4.000000,4.000000,4.000000,4.000000,4.000000,4.000000,4.000000,4.000000,4.000000,2.000000,4.000000,4.000000,1.000000,41.666668
1601229333.066443,64.000000,0.000000,3921.538574,4622.051270,4144.615234,4256.410156,3981.538574,4601.538574,3947.692383,3866.153809,4306.666504,3977.435791,4246.153809,4155.384766,4067.692383,4007.692383,376.000000,4.000000,,,,0.000000,2.000000,4.000000,4.000000,4.000000,4.000000,4.000000,4.000000,4.000000,4.000000,4.000000,2.000000,4.000000,4.000000,1.000000,41.666668
1601229333.074278,65.000000,0.000000,3925.641113,4624.102539,4151.794922,4273.333496,3988.718018,4606.153809,3951.794922,3873.846191,4315.897461,3984.102539,4255.384766,4160.000000,4071.794922,4011.794922,431.000000,4.000000,,,,0.000000,2.000000,4.000000,4.000000,4.000000,4.000000,4.000000,4.000000,4.000000,4.000000,4.000000,2.000000,4.000000,4.000000,1.000000,41.666668
1601229333.082212,66.000000,0.000000,3927.179443,4635.384766,4153.846191,4282.563965,3994.871826,4606.666504,3953.333252,3878.461426,4327.179688,3993.846191,4258.461426,4166.666504,4077.435791,4011.281982,383.000000,4.000000,,,,0.000000,2.000000,4.000000,4.000000,4.000000,4.000000,4.000000,4.000000,4.000000,4.000000,4.000000,2.000000,4.000000,4.000000,1.000000,41.666668
1601229333.090045,67.000000,0.000000,3928.205078,4642.051270,4153.333496,4275.897461,3994.871826,4607.179688,3950.769287,3876.923096,4329.230957,3998.974365,4256.922852,4167.179688,4084.102539,4010.769287,436.000000,4.000000,,,,0.000000,2.000000,4.000000,4.000000,4.000000,4.000000,4.000000,4.000000,4.000000,4.000000,4.000000,2.000000,4.000000,4.000000,1.000000,41.666668
1601229333.097779,68.000000,0.000000,3922.564209,4641.025879,4152.820313,4272.307617,3995.897461,4612.307617,3952.307617,3873.333252,4327.692383,3996.923096,4257.436035,4162.563965,4075.384521,4010.256348,460.000000,4.000000,,,,0.000000,2.000000,4.000000,4.000000,4.000000,4.000000,4.000000,4.000000,4.000000,4.000000,4.000000,2.000000,4.000000,4.000000,1.000000,41.666668
1601229333.105612,69.000000,0.000000,3920.000000,4631.794922,4152.820313,4269.230957,3995.897461,4611.794922,3955.897461,3871.794922,4324.102539,3995.897461,4259.487305,4165.641113,4073.333252,4011.281982,440.000000,4.000000,,,,0.000000,2.000000,4.000000,4.000000,4.000000,4.000000,4.000000,4.000000,4.000000,4.000000,4.000000,2.000000,4.000000,4.000000,1.000000,41.666668
1601229333.113346,70.000000,0.000000,3925.128174,4630.256348,4150.769043,4270.256348,3995.897461,4610.256348,3958.974365,3875.384521,4325.641113,4005.641113,4265.128418,4174.358887,4093.846191,4012.820557,449.000000,4.000000,,,,0.000000,2.000000,4.000000,4.000000,4.000000,4.000000,4.000000,4.000000,4.000000,4.000000,4.000000,2.000000,4.000000,4.000000,1.000000,41.666668
1601229333.121179,71.000000,0.000000,3927.692383,4635.384766,4152.307617,4266.666504,3994.358887,4611.794922,3962.564209,3880.512939,4329.230957,4013.333252,4269.230957,4175.897461,4097.436035,4014.871826,353.000000,4.000000,,,,0.000000,2.000000,4.000000,4.000000,4.000000,4.000000,4.000000,4.000000,4.000000,4.000000,4.000000,2.000000,4.000000,4.000000,1.000000,41.666668
1601229333.128911,72.000000,0.000000,3924.615479,4622.563965,4153.333496,4256.922852,3987.179443,4610.256348,3962.564209,3885.128174,4329.743652,4007.179443,4264.615234,4172.820313,4082.051270,4014.358887,408.000000,4.000000,,,,0.000000,2.000000,4.000000,4.000000,4.000000,4.000000,4.000000,4.000000,4.000000,4.000000,4.000000,2.000000,4.000000,4.000000,1.000000,41.666668
1601229333.136743,73.000000,0.000000,3920.512939,4611.282227,4149.743652,4263.077148,3984.102539,4606.153809,3958.461426,3887.692383,4330.256348,4003.076904,4261.538574,4174.358887,4081.538574,4010.769287,407.000000,4.000000,,,,0.000000,2.000000,4.000000,4.000000,4.000000,4.000000,4.000000,4.000000,4.000000,4.000000,4.000000,2.000000,4.000000,4.000000,1.000000,41.666668
1601229333.144474,74.000000,0.000000,3920.000000,4622.563965,4149.743652,4272.307617,3989.743652,4604.102539,3953.846191,3881.025635,4326.666504,4002.564209,4261.538574,4173.333496,4083.589844,4007.692383,430.000000,4.000000,,,,0.000000,2.000000,4.000000,4.000000,4.000000,4.000000,4.000000,4.000000,4.000000,4.000000,4.000000,2.000000,4.000000,4.000000,1.000000,41.666668
1601229333.152305,75.000000,0.000000,3921.538574,4632.820313,4150.769043,4266.153809,3998.461426,4603.589844,3957.435791,3873.333252,4325.641113,4003.076904,4257.436035,4166.666504,4076.410156,4006.666748,45.000000,4.000000,,,,0.000000,2.000000,4.000000,4.000000,4.000000,4.000000,4.000000,4.000000,4.000000,4.000000,4.000000,2.000000,4.000000,4.000000,1.000000,41.666668
1601229333.160036,76.000000,0.000000,3923.589844,4632.820313,4148.717773,4264.102539,3998.461426,4611.794922,3966.153809,3877.435791,4331.282227,4005.128174,4253.333496,4165.641113,4070.769287,4006.666748,242.000000,4.000000,,,,0.000000,2.000000,4.000000,4.000000,4.000000,4.000000,4.000000,4.000000,4.000000,4.000000,4.000000,2.000000,4.000000,4.000000,1.000000,41.666668
1601229333.167866,77.000000,0.000000,3927.179443,4641.025879,4151.282227,4276.922852,3998.461426,4633.846191,3975.897461,3887.692383,4338.974121,4015.384521,4260.000000,4171.282227,4078.461426,4007.692383,346.000000,4.000000,,,,0.000000,2.000000,4.000000,4.000000,4.000000,4.000000,4.000000,4.000000,4.000000,4.000000,4.000000,2.000000,4.000000,4.000000,1.000000,41.666668
1601229333.175596,78.000000,0.000000,3930.769287,4641.025879,4156.922852,4278.974121,4003.589844,4643.077148,3978.974365,3888.205078,4343.077148,4027.692383,4267.692383,4175.384766,4087.179443,4012.307617,430.000000,4.000000,,,,0.000000,2.000000,4.000000,4.000000,4.000000,4.000000,4.000000,4.000000,4.000000,4.000000,4.000000,2.000000,4.000000,4.000000,1.000000,41.666668
1601229333.183426,79.000000,0.000000,3925.641113,4627.179688,4156.410156,4272.307617,4006.666748,4632.820313,3976.410156,3885.128174,4344.102539,4031.794922,4266.666504,4175.384766,4087.692383,4014.358887,45.000000,4.000000,,,,0.000000,2.000000,4.000000,4.000000,4.000000,4.000000,4.000000,4.000000,4.000000,4.000000,4.000000,2.000000,4.000000,4.000000,1.000000,41.666668
1601229333.191156,80.000000,0.000000,3915.897461,4623.077148,4150.769043,4268.717773,3997.435791,4620.000000,3968.205078,3877.948730,4331.794922,4021.025635,4259.487305,4171.794922,4075.897461,4011.794922,242.000000,4.000000,,,,0.000000,2.000000,4.000000,4.000000,4.000000,4.000000,4.000000,4.000000,4.000000,4.000000,4.000000,2.000000,4.000000,4.000000,1.000000,41.666668
1601229333.198985,81.000000,0.000000,3914.871826,4632.307617,4148.205078,4272.307617,3993.846191,4618.461426,3966.153809,3871.281982,4322.051270,4010.256348,4255.384766,4168.717773,4067.692383,4003.076904,346.000000,4.000000,,,,0.000000,2.000000,4.000000,4.000000,4.000000,4.000000,4.000000,4.000000,4.000000,4.000000,4.000000,2.000000,4.000000,4.000000,1.000000,41.666668
1601229333.206714,82.000000,0.000000,3917.948730,4635.384766,4151.794922,4277.436035,3998.974365,4618.461426,3970.769287,3876.923096,4329.743652,4015.384521,4257.948730,4172.820313,4072.820557,4005.128174,430.000000,4.000000,,,,0.000000,2.000000,4.000000,4.000000,4.000000,4.000000,4.000000,4.000000,4.000000,4.000000,4.000000,2.000000,4.000000,4.000000,1.000000,41.666668
1601229333.214543,83.000000,0.000000,3919.487061,4629.743652,4157.436035,4275.897461,3998.974365,4617.948730,3974.358887,3887.179443,4342.051270,4027.692383,4264.102539,4177.948730,4085.641113,4010.769287,45.000000,4.000000,,,,0.000000,2.000000,4.000000,4.000000,4.000000,4.000000,4.000000,4.000000,4.000000,4.000000,4.000000,2.000000,4.000000,4.000000,1.000000,41.666668
1601229333.222271,84.000000,0.000000,3920.512939,4621.538574,4155.384766,4269.230957,3994.358887,4618.974121,3974.358887,3889.230713,4345.641113,4029.743652,4266.153809,4175.897461,4091.281982,4009.230713,242.000000,4.000000,,,,0.000000,2.000000,4.000000,4.000000,4.000000,4.000000,4.000000,4.000000,4.000000,4.000000,4.000000,2.000000,4.000000,4.000000,1.000000,41.666668
1601229333.230206,85.000000,0.000000,3924.615479,4627.692383,4157.948730,4276.410156,4001.025635,4627.179688,3980.512939,3891.794922,4348.205078,4033.846191,4266.153809,4180.000000,4093.333252,4008.205078,346.000000,4.000000,,,,0.000000,2.000000,4.000000,4.000000,4.000000,4.000000,4.000000,4.000000,4.000000,4.000000,4.000000,2.000000,4.000000,4.000000,1.000000,41.666668
1601229333.238042,86.000000,0.000000,3921.538574,4638.461426,4158.974121,4283.589844,4006.153809,4621.538574,3975.384521,3889.230713,4342.563965,4029.230713,4264.615234,4181.025879,4082.564209,4012.820557,430.000000,4.000000,,,,0.000000,2.000000,4.000000,4.000000,4.000000,4.000000,4.000000,4.000000,4.000000,4.000000,4.000000,2.000000,4.000000,4.000000,1.000000,41.666668
1601229333.245976,87.000000,0.000000,3917.435791,4636.922852,4152.820313,4272.820313,4001.538574,4608.717773,3963.589844,3884.102539,4335.897461,4015.897461,4260.512695,4172.307617,4068.205078,4009.743652,45.000000,4.000000,,,,0.000000,2.000000,4.000000,4.000000,4.000000,4.000000,4.000000,4.000000,4.000000,4.000000,4.000000,2.000000,4.000000,4.000000,1.000000,41.666668
1601229333.253810,88.000000,0.000000,3925.641113,4637.436035,4159.487305,4272.307617,4005.128174,4622.051270,3973.846191,3890.769287,4346.153809,4027.692383,4261.538574,4173.846191,4075.897461,4007.179443,242.000000,4.000000,,,,0.000000,2.000000,4.000000,4.000000,4.000000,4.000000,4.000000,4.000000,4.000000,4.000000,4.000000,2.000000,4.000000,4.000000,1.000000,41.666668
1601229333.261744,89.000000,0.000000,3931.281982,4646.153809,4166.666504,4283.589844,4010.256348,4640.512695,3985.641113,3895.384521,4354.358887,4042.051270,4266.666504,4180.512695,4090.769287,4010.256348,346.000000,4.000000,,,,0.000000,2.000000,4.000000,4.000000,4.000000,4.000000,4.000000,4.000000,4.000000,4.000000,4.000000,2.000000,4.000000,4.000000,1.000000,41.666668
1601229333.269579,90.000000,0.000000,3921.025635,4633.846191,4153.333496,4274.358887,4001.538574,4629.230957,3974.358887,3886.153809,4341.538574,4025.641113,4263.077148,4170.769043,4084.102539,4009.230713,430.000000,4.000000,,,,0.000000,2.000000,4.000000,4.000000,4.000000,4.000000,4.000000,4.000000,4.000000,4.000000,4.000000,2.000000,4.000000,4.000000,1.000000,41.666668
1601229333.277512,91.000000,0.000000,3913.333252,4612.307617,4146.666504,4260.000000,3989.230713,4612.307617,3963.076904,3873.846191,4323.077148,4008.718018,4255.384766,4161.538574,4072.307617,4004.615479,45.000000,4.000000,,,,0.000000,2.000000,4.000000,4.000000,4.000000,4.000000,4.000000,4.000000,4.000000,4.000000,4.000000,2.000000,4.000000,4.000000,1.000000,41.666668
1601229333.285345,92.000000,0.000000,3920.512939,4626.153809,4156.922852,4271.282227,3994.871826,4618.974121,3971.794922,3873.333252,4324.102539,4015.384521,4257.948730,4169.230957,4075.897461,4003.589844,242.000000,4.000000,,,,0.000000,2.000000,4.000000,4.000000,4.000000,4.000000,4.000000,4.000000,4.000000,4.000000,4.000000,2.000000,4.000000,4.000000,1.000000,41.666668
1601229333.293078,93.000000,0.000000,3920.512939,4643.589844,4156.410156,4277.436035,4004.615479,4628.205078,3979.487061,3879.487061,4328.717773,4011.281982,4256.410156,4170.256348,4073.333252,4003.589844,346.000000,4.000000,,,,0.000000,2.000000,4.000000,4.000000,4.000000,4.000000,4.000000,4.000000,4.000000,4.000000,4.000000,2.000000,4.000000,4.000000,1.000000,41.666668
1601229333.300910,94.000000,0.000000,3912.307617,4630.769043,4145.641113,4264.615234,4004.102539,4624.102539,3976.923096,3883.589844,4327.692383,4002.051270,4251.282227,4161.025879,4065.641113,4000.000000,430.000000,4.000000,,,,0.000000,2.000000,4.000000,4.000000,4.000000,4.000000,4.000000,4.000000,4.000000,4.000000,4.000000,2.000000,4.000000,4.000000,1.000000,41.666668
1601229333.308642,95.000000,0.000000,3910.769287,4613.333496,4144.102539,4257.948730,3995.897461,4615.384766,3971.281982,3883.076904,4330.769043,4005.128174,4252.820313,4158.461426,4067.692383,3998.974365,45.000000,4.000000,,,,0.000000,2.000000,4.000000,4.000000,4.000000,4.000000,4.000000,4.000000,4.000000,4.000000,4.000000,2.000000,4.000000,4.000000,1.000000,41.666668
1601229333.316474,96.000000,0.000000,3916.410156,4618.461426,4148.717773,4267.179688,3995.897461,4617.436035,3968.718018,3888.205078,4344.615234,4015.897461,4258.461426,4167.179688,4081.538574,4000.000000,242.000000,4.000000,,,,0.000000,2.000000,4.000000,4.000000,4.000000,4.000000,4.000000,4.000000,4.000000,4.000000,4.000000,2.000000,4.000000,4.000000,1.000000,41.666668
1601229333.324206,97.000000,0.000000,3923.076904,4629.743652,4152.820313,4269.743652,3998.461426,4613.846191,3957.435791,3889.230713,4346.153809,4016.923096,4262.051270,4171.794922,4089.743652,4006.666748,346.000000,4.000000,,,,0.000000,2.000000,4.000000,4.000000,4.000000,4.000000,4.000000,4.000000,4.000000,4.000000,4.000000,2.000000,4.000000,4.000000,1.000000,41.666668
1601229333.332038,98.000000,0.000000,3929.230713,4638.974121,4156.922852,4272.820313,3998.461426,4605.128418,3949.230713,3883.589844,4342.051270,4015.897461,4265.641113,4168.717773,4090.769287,4008.205078,430.000000,4.000000,,,,0.000000,2.000000,4.000000,4.000000,4.000000,4.000000,4.000000,4.000000,4.000000,4.000000,4.000000,2.000000,4.000000,4.000000,1.000000,41.666668
1601229333.339768,99.000000,0.000000,3932.820557,4640.512695,4160.000000,4280.000000,4000.512939,4607.692383,3957.435791,3885.128174,4346.153809,4020.000000,4267.692383,4174.871582,4093.333252,4007.692383,45.000000,4.000000,,,,0.000000,2.000000,4.000000,4.000000,4.000000,4.000000,4.000000,4.000000,4.000000,4.000000,4.000000,2.000000,4.000000,4.000000,1.000000,41.666668
1601229333.347599,100.000000,0.000000,3930.256348,4632.820313,4162.051270,4275.384766,4005.128174,4618.974121,3969.230713,3889.230713,4344.615234,4025.641113,4267.179688,4184.102539,4099.487305,4007.179443,242.000000,4.000000,,,,0.000000,2.000000,4.000000,4.000000,4.000000,4.000000,4.000000,4.000000,4.000000,4.000000,4.000000,2.000000,4.000000,4.000000,1.000000,41.666668
1601229333.355329,101.000000,0.000000,3924.102539,4630.769043,4160.000000,4266.666504,4002.051270,4615.384766,3968.205078,3878.974365,4327.179688,4018.461426,4262.051270,4174.358887,4091.794922,4006.666748,346.000000,4.000000,,,,0.000000,2.000000,4.000000,4.000000,4.000000,4.000000,4.000000,4.000000,4.000000,4.000000,4.000000,2.000000,4.000000,4.000000,1.000000,41.666668
1601229333.363159,102.000000,0.000000,3919.487061,4631.794922,4153.846191,4270.256348,3993.846191,4606.153809,3963.076904,3866.153809,4312.307617,4003.076904,4256.410156,4158.461426,4074.358887,4001.538574,430.000000,4.000000,,,,0.000000,2.000000,4.000000,4.000000,4.000000,4.000000,4.000000,4.000000,4.000000,4.000000,4.000000,2.000000,4.000000,4.000000,1.000000,41.666668
1601229333.370888,103.000000,0.000000,3913.333252,4615.384766,4143.589844,4267.692383,3986.153809,4602.563965,3958.974365,3862.564209,4307.179688,3997.948730,4254.358887,4152.820313,4072.307617,4001.025635,45.000000,4.000000,,,,0.000000,2.000000,4.000000,4.000000,4.000000,4.000000,4.000000,4.000000,4.000000,4.000000,4.000000,2.000000,4.000000,4.000000,1.000000,41.666668
1601229333.378717,104.000000,0.000000,3912.820557,4604.615234,4141.538574,4251.794922,3985.128174,4601.025879,3957.948730,3865.128174,4307.179688,4004.615479,4253.333496,4151.794922,4080.000000,4001.025635,242.000000,4.000000,,,,0.000000,2.000000,4.000000,4.000000,4.000000,4.000000,4.000000,4.000000,4.000000,4.000000,4.000000,2.000000,4.000000,4.000000,1.000000,41.666668
1601229333.386446,105.000000,0.000000,3922.564209,4622.563965,4151.282227,4257.948730,3995.897461,4608.717773,3967.692383,3875.384521,4321.538574,4016.410156,4254.871582,4153.333496,4085.641113,4001.025635,346.000000,4.000000,,,,0.000000,2.000000,4.000000,4.000000,4.000000,4.000000,4.000000,4.000000,4.000000,4.000000,4.000000,2.000000,4.000000,4.000000,1.000000,41.666668
1601229333.394275,106.000000,0.000000,3932.820557,4640.000000,4158.461426,4279.487305,4005.641113,4622.051270,3977.948730,3887.692383,4341.538574,4027.179443,4265.128418,4163.589844,4096.410156,4011.794922,430.000000,4.000000,,,,0.000000,2.000000,4.000000,4.000000,4.000000,4.000000,4.000000,4.000000,4.000000,4.000000,4.000000,2.000000,4.000000,4.000000,1.000000,41.666668
1601229333.402003,107.000000,0.000000,3932.820557,4640.512695,4155.384766,4280.000000,4005.641113,4626.666504,3977.948730,3891.794922,4349.230957,4038.461426,4274.358887,4170.769043,4104.615234,4026.666748,45.000000,4.000000,,,,0.000000,2.000000,4.000000,4.000000,4.000000,4.000000,4.000000,4.000000,4.000000,4.000000,4.000000,2.000000,4.000000,4.000000,1.000000,41.666668
1601229333.409938,108.000000,0.000000,3927.692383,4637.948730,4152.307617,4269.743652,4001.025635,4620.000000,3967.692383,3890.769287,4349.743652,4040.000000,4271.282227,4169.743652,4099.487305,4029.743652,242.000000,4.000000,,,,0.000000,2.000000,4.000000,4.000000,4.000000,4.000000,4.000000,4.000000,4.000000,4.000000,4.000000,2.000000,4.000000,4.000000,1.000000,41.666668
1601229333.417773,109.000000,0.000000,3928.718018,4635.897461,4157.436035,4270.769043,3998.974365,4613.846191,3960.512939,3894.871826,4356.922852,4037.435791,4268.205078,4171.794922,4097.436035,4026.666748,346.000000,4.000000,,,,0.000000,2.000000,4.000000,4.000000,4.000000,4.000000,4.000000,4.000000,4.000000,4.000000,4.000000,2.000000,4.000000,4.000000,1.000000,41.666668
1601229333.425707,110.000000,0.000000,3931.794922,4636.410156,4162.051270,4275.897461,3994.871826,4612.820313,3964.615479,3890.769287,4348.205078,4033.846191,4266.666504,4174.871582,4094.358887,4027.179443,430.000000,4.000000,,,,0.000000,2.000000,4.000000,4.000000,4.000000,4.000000,4.000000,4.000000,4.000000,4.000000,4.000000,2.000000,4.000000,4.000000,1.000000,41.666668
1601229333.433541,111.000000,0.000000,3931.281982,4647.179688,4162.051270,4284.615234,3997.948730,4618.974121,3975.897461,3882.051270,4329.743652,4026.153809,4264.615234,4174.871582,4087.692383,4015.384521,45.000000,4.000000,,,,0.000000,2.000000,4.000000,4.000000,4.000000,4.000000,4.000000,4.000000,4.000000,4.000000,4.000000,2.000000,4.000000,4.000000,1.000000,41.666668
1601229333.441475,112.000000,0.000000,3926.666748,4638.974121,4160.000000,4284.615234,3995.384521,4619.487305,3976.410156,3877.948730,4320.512695,4013.333252,4260.512695,4175.897461,4083.589844,4001.025635,242.000000,4.000000,,,,0.000000,2.000000,4.000000,4.000000,4.000000,4.000000,4.000000,4.000000,4.000000,4.000000,4.000000,2.000000,4.000000,4.000000,1.000000,41.666668
1601229333.449309,113.000000,0.000000,3927.179443,4619.487305,4164.102539,4278.461426,3987.692383,4617.948730,3974.871826,3875.384521,4317.436035,4009.743652,4260.512695,4181.538574,4085.641113,4001.025635,346.000000,4.000000,,,,0.000000,2.000000,4.000000,4.000000,4.000000,4.000000,4.000000,4.000000,4.000000,4.000000,4.000000,2.000000,4.000000,4.000000,1.000000,41.666668
1601229333.457242,114.000000,0.000000,3931.794922,4624.615234,4166.666504,4278.974121,3988.718018,4615.897461,3971.281982,3869.743652,4306.666504,4008.718018,4261.538574,4183.077148,4083.589844,4004.102539,430.000000,4.000000,,,,0.000000,2.000000,4.000000,4.000000,4.000000,4.000000,4.000000,4.000000,4.000000,4.000000,4.000000,2.000000,4.000000,4.000000,1.000000,41.666668
1601229333.465076,115.000000,0.000000,3933.333252,4633.333496,4162.563965,4282.563965,3991.281982,4603.589844,3956.410156,3865.641113,4298.461426,3994.358887,4255.384766,4174.871582,4076.923096,4000.512939,45.000000,4.000000,,,,0.000000,2.000000,4.000000,4.000000,4.000000,4.000000,4.000000,4.000000,4.000000,4.000000,4.000000,2.000000,4.000000,4.000000,1.000000,41.666668
1601229333.473008,116.000000,0.000000,3933.846191,4626.153809,4162.563965,4277.436035,3986.153809,4594.871582,3948.718018,3866.153809,4303.589844,3983.589844,4251.794922,4170.256348,4073.333252,4006.153809,242.000000,4.000000,,,,0.000000,2.000000,4.000000,4.000000,4.000000,4.000000,4.000000,4.000000,4.000000,4.000000,4.000000,2.000000,4.000000,4.000000,1.000000,41.666668
1601229333.480841,117.000000,0.000000,3938.974365,4637.948730,4165.641113,4289.743652,3995.897461,4616.922852,3967.692383,3878.461426,4325.641113,4003.076904,4258.974121,4174.871582,4081.538574,4010.769287,346.000000,4.000000,,,,0.000000,2.000000,4.000000,4.000000,4.000000,4.000000,4.000000,4.000000,4.000000,4.000000,4.000000,2.000000,4.000000,4.000000,1.000000,41.666668
1601229333.488573,118.000000,0.000000,3935.384521,4657.436035,4158.461426,4302.051270,4010.256348,4631.794922,3976.410156,3890.256348,4342.563965,4018.461426,4258.461426,4170.769043,4079.487061,4010.256348,430.000000,4.000000,,,,0.000000,2.000000,4.000000,4.000000,4.000000,4.000000,4.000000,4.000000,4.000000,4.000000,4.000000,2.000000,4.000000,4.000000,1.000000,41.666668
1601229333.496405,119.000000,0.000000,3925.641113,4649.743652,4151.282227,4286.153809,4007.179443,4622.051270,3969.230713,3889.230713,4339.487305,4009.743652,4249.230957,4162.051270,4069.230713,4008.205078,45.000000,4.000000,,,,0.000000,2.000000,4.000000,4.000000,4.000000,4.000000,4.000000,4.000000,4.000000,4.000000,4.000000,2.000000,4.000000,4.000000,1.000000,41.666668
1601229333.504137,120.000000,0.000000,3926.153809,4636.410156,4157.436035,4277.436035,3996.410156,4620.000000,3968.718018,3886.153809,4334.871582,4006.666748,4249.230957,4161.025879,4069.743652,4008.718018,242.000000,4.000000,,,,0.000000,2.000000,4.000000,4.000000,4.000000,4.000000,4.000000,4.000000,4.000000,4.000000,4.000000,2.000000,4.000000,4.000000,1.000000,41.666668
1601229333.511968,121.000000,0.000000,3930.256348,4634.871582,4162.563965,4293.333496,3995.897461,4622.051270,3963.589844,3882.051270,4332.820313,4009.230713,4250.256348,4159.487305,4071.281982,4011.281982,346.000000,4.000000,,,,0.000000,2.000000,4.000000,4.000000,4.000000,4.000000,4.000000,4.000000,4.000000,4.000000,4.000000,2.000000,4.000000,4.000000,1.000000,41.666668
1601229333.519699,122.000000,0.000000,3925.641113,4637.948730,4156.922852,4297.436035,4001.538574,4612.307617,3954.358887,3875.897461,4324.615234,4003.589844,4248.717773,4155.384766,4067.692383,4013.333252,430.000000,4.000000,,,,0.000000,2.000000,4.000000,4.000000,4.000000,4.000000,4.000000,4.000000,4.000000,4.000000,4.000000,2.000000,4.000000,4.000000,1.000000,41.666668
1601229333.527530,123.000000,0.000000,3923.076904,4637.436035,4155.384766,4281.538574,4001.025635,4606.153809,3953.333252,3874.358887,4315.384766,3995.384521,4252.820313,4159.487305,4072.307617,4013.333252,45.000000,4.000000,,,,0.000000,2.000000,4.000000,4.000000,4.000000,4.000000,4.000000,4.000000,4.000000,4.000000,4.000000,2.000000,4.000000,4.000000,1.000000,41.666668
1601229333.535260,124.000000,0.000000,3925.641113,4630.256348,4156.410156,4277.436035,3994.871826,4602.563965,3949.230713,3869.230713,4304.615234,3989.230713,4254.358887,4162.051270,4075.384521,4014.358887,242.000000,4.000000,,,,0.000000,2.000000,4.000000,4.000000,4.000000,4.000000,4.000000,4.000000,4.000000,4.000000,4.000000,2.000000,4.000000,4.000000,1.000000,41.666668
1601229333.543090,125.000000,0.000000,3929.230713,4628.717773,4160.000000,4285.128418,3991.794922,4592.820313,3941.025635,3855.897461,4288.205078,3980.000000,4248.205078,4160.512695,4070.256348,4018.974365,346.000000,4.000000,,,,0.000000,2.000000,4.000000,4.000000,4.000000,4.000000,4.000000,4.000000,4.000000,4.000000,4.000000,2.000000,4.000000,4.000000,1.000000,41.666668
1601229333.550820,126.000000,0.000000,3936.923096,4638.461426,4164.615234,4289.230957,3995.897461,4592.820313,3943.589844,3852.820557,4283.077148,3976.923096,4248.717773,4164.615234,4071.794922,4020.000000,430.000000,4.000000,,,,0.000000,2.000000,4.000000,4.000000,4.000000,4.000000,4.000000,4.000000,4.000000,4.000000,4.000000,2.000000,4.000000,4.000000,1.000000,41.666668
1601229333.558649,127.000000,0.000000,3934.871826,4634.871582,4163.077148,4283.589844,3990.769287,4595.384766,3942.051270,3853.333252,4285.128418,3969.743652,4246.666504,4163.589844,4065.128174,4018.974365,45.000000,4.000000,,,,0.000000,2.000000,4.000000,4.000000,4.000000,4.000000,4.000000,4.000000,4.000000,4.000000,4.000000,2.000000,4.000000,4.000000,1.000000,41.666668
1601229333.566378,128.000000,0.000000,3926.666748,4628.205078,4159.487305,4281.025879,3986.153809,4598.461426,3942.564209,3854.358887,4291.282227,3969.230713,4244.615234,4160.000000,4060.512939,4015.384521,242.000000,4.000000,,,,0.000000,2.000000,4.000000,4.000000,4.000000,4.000000,4.000000,4.000000,4.000000,4.000000,4.000000,2.000000,4.000000,4.000000,1.000000,41.666668
1601229333.574207,0.000000,0.000000,3926.666748,4628.717773,4161.538574,4280.000000,3990.256348,4605.128418,3951.794922,3862.564209,4298.974121,3984.615479,4249.743652,4162.563965,4071.794922,4019.487061,376.000000,4.000000,,,,0.000000,2.000000,4.000000,4.000000,4.000000,4.000000,4.000000,4.000000,4.000000,4.000000,4.000000,2.000000,4.000000,4.000000,1.000000,41.666668
1601229333.581935,1.000000,0.000000,3928.718018,4629.743652,4162.563965,4280.512695,3994.871826,4611.794922,3959.487061,3871.281982,4308.205078,3997.948730,4255.384766,4162.563965,4086.153809,4027.179443,434.000000,4.000000,,,,0.000000,2.000000,4.000000,4.000000,4.000000,4.000000,4.000000,4.000000,4.000000,4.000000,4.000000,2.000000,4.000000,4.000000,1.000000,41.666668
1601229333.589870,2.000000,0.000000,3926.153809,4624.615234,4156.922852,4283.077148,3992.820557,4613.846191,3961.538574,3873.333252,4315.897461,4000.512939,4256.410156,4154.871582,4087.179443,4028.205078,383.000000,4.000000,,,,0.000000,2.000000,4.000000,4.000000,4.000000,4.000000,4.000000,4.000000,4.000000,4.000000,4.000000,2.000000,4.000000,4.000000,1.000000,41.666668
1601229333.597705,3.000000,0.000000,3922.564209,4619.487305,4154.358887,4281.025879,3991.794922,4612.307617,3964.102539,3880.000000,4322.051270,4003.076904,4256.922852,4150.769043,4084.102539,4023.076904,439.000000,4.000000,,,,0.000000,2.000000,4.000000,4.000000,4.000000,4.000000,4.000000,4.000000,4.000000,4.000000,4.000000,2.000000,4.000000,4.000000,1.000000,41.666668
1601229333.605638,4.000000,0.000000,3917.435791,4615.384766,4155.384766,4273.846191,3988.205078,4605.128418,3961.538574,3884.615479,4323.077148,4004.615479,4257.436035,4150.769043,4079.487061,4027.692383,461.000000,4.000000,,,,0.000000,2.000000,4.000000,4.000000,4.000000,4.000000,4.000000,4.000000,4.000000,4.000000,4.000000,2.000000,4.000000,4.000000,1.000000,41.666668
1601229333.613472,5.000000,0.000000,3920.000000,4618.461426,4160.000000,4275.384766,3987.179443,4604.102539,3958.461426,3885.128174,4325.641113,4011.281982,4260.512695,4152.820313,4084.102539,4029.743652,438.000000,4.000000,,,,0.000000,2.000000,4.000000,4.000000,4.000000,4.000000,4.000000,4.000000,4.000000,4.000000,4.000000,2.000000,4.000000,4.000000,1.000000,41.666668
1601229333.621405,6.000000,0.000000,3926.153809,4626.153809,4161.538574,4284.615234,3995.384521,4611.282227,3963.589844,3888.718018,4335.897461,4024.102539,4268.717773,4154.871582,4102.051270,4023.589844,448.000000,4.000000,,,,0.000000,2.000000,4.000000,4.000000,4.000000,4.000000,4.000000,4.000000,4.000000,4.000000,4.000000,2.000000,4.000000,4.000000,1.000000,41.666668
1601229333.629238,7.000000,0.000000,3925.641113,4628.717773,4158.461426,4284.102539,3999.487061,4613.333496,3964.615479,3885.128174,4336.410156,4025.128174,4272.820313,4155.897461,4110.256348,4020.000000,356.000000,4.000000,,,,0.000000,2.000000,4.000000,4.000000,4.000000,4.000000,4.000000,4.000000,4.000000,4.000000,4.000000,2.000000,4.000000,4.000000,1.000000,41.666668
1601229333.637171,8.000000,0.000000,3925.128174,4625.641113,4157.948730,4274.358887,3994.358887,4608.205078,3957.948730,3873.846191,4318.974121,4012.307617,4269.230957,4153.846191,4103.077148,4018.461426,406.000000,4.000000,,,,0.000000,2.000000,4.000000,4.000000,4.000000,4.000000,4.000000,4.000000,4.000000,4.000000,4.000000,2.000000,4.000000,4.000000,1.000000,41.666668
1601229333.645003,9.000000,0.000000,3927.692383,4615.897461,4157.436035,4269.230957,3991.794922,4604.102539,3954.358887,3865.128174,4300.000000,4001.025635,4261.538574,4148.205078,4093.846191,4015.897461,407.000000,4.000000,,,,0.000000,2.000000,4.000000,4.000000,4.000000,4.000000,4.000000,4.000000,4.000000,4.000000,4.000000,2.000000,4.000000,4.000000,1.000000,41.666668
1601229333.652736,10.000000,0.000000,3922.051270,4605.128418,4155.384766,4267.692383,3987.179443,4605.128418,3953.333252,3860.000000,4295.897461,3997.435791,4254.358887,4138.974121,4090.769287,4014.871826,428.000000,4.000000,,,,0.000000,2.000000,4.000000,4.000000,4.000000,4.000000,4.000000,4.000000,4.000000,4.000000,4.000000,2.000000,4.000000,4.000000,1.000000,41.666668
1601229333.660569,11.000000,0.000000,3916.923096,4605.128418,4154.358887,4264.615234,3978.461426,4609.230957,3955.897461,3864.102539,4305.641113,3998.974365,4254.871582,4137.436035,4092.307617,4017.948730,43.000000,4.000000,,,,0.000000,2.000000,4.000000,4.000000,4.000000,4.000000,4.000000,4.000000,4.000000,4.000000,4.000000,2.000000,4.000000,4.000000,1.000000,41.666668
1601229333.668301,12.000000,0.000000,3921.025635,4611.794922,4153.846191,4267.179688,3985.641113,4614.871582,3971.281982,3882.564209,4325.641113,4011.281982,4262.563965,4145.128418,4101.025879,4022.051270,244.000000,4.000000,,,,0.000000,2.000000,4.000000,4.000000,4.000000,4.000000,4.000000,4.000000,4.000000,4.000000,4.000000,2.000000,4.000000,4.000000,1.000000,41.666668
1601229333.676133,13.000000,0.000000,3923.076904,4609.230957,4152.820313,4264.102539,3996.410156,4617.436035,3982.051270,3894.871826,4340.512695,4026.153809,4269.743652,4151.794922,4112.820313,4026.666748,347.000000,4.000000,,,,0.000000,2.000000,4.000000,4.000000,4.000000,4.000000,4.000000,4.000000,4.000000,4.000000,4.000000,2.000000,4.000000,4.000000,1.000000,41.666668
1601229333.683864,14.000000,0.000000,3925.128174,4604.615234,4157.436035,4258.461426,3988.718018,4619.487305,3978.974365,3895.384521,4349.230957,4040.000000,4276.410156,4156.922852,4128.717773,4029.743652,428.000000,4.000000,,,,0.000000,2.000000,4.000000,4.000000,4.000000,4.000000,4.000000,4.000000,4.000000,4.000000,4.000000,2.000000,4.000000,4.000000,1.000000,41.666668
1601229333.691696,15.000000,0.000000,3928.718018,4601.538574,4164.102539,4260.000000,3979.487061,4617.948730,3974.358887,3894.871826,4350.769043,4043.589844,4279.487305,4160.512695,4134.358887,4030.256348,43.000000,4.000000,,,,0.000000,2.000000,4.000000,4.000000,4.000000,4.000000,4.000000,4.000000,4.000000,4.000000,4.000000,2.000000,4.000000,4.000000,1.000000,41.666668
1601229333.699426,16.000000,0.000000,3927.179443,4593.333496,4163.589844,4264.615234,3984.102539,4618.461426,3976.410156,3897.435791,4350.256348,4042.051270,4278.461426,4159.487305,4129.230957,4027.179443,0.000000,4.000000,,,,0.000000,2.000000,4.000000,4.000000,4.000000,4.000000,4.000000,4.000000,4.000000,4.000000,4.000000,2.000000,4.000000,4.000000,1.000000,41.666668
1601229333.707256,17.000000,0.000000,3921.538574,4584.102539,4158.974121,4262.051270,3983.076904,4618.461426,3973.846191,3893.333252,4344.615234,4038.461426,4276.410156,4154.871582,4124.615234,4025.128174,0.000000,4.000000,,,,0.000000,2.000000,4.000000,4.000000,4.000000,4.000000,4.000000,4.000000,4.000000,4.000000,4.000000,2.000000,4.000000,4.000000,1.000000,41.666668
1601229333.714986,18.000000,0.000000,3922.564209,4592.307617,4157.436035,4265.128418,3983.589844,4622.051270,3973.333252,3887.179443,4340.512695,4035.897461,4272.307617,4153.846191,4125.641113,4023.076904,0.000000,4.000000,,,,0.000000,2.000000,4.000000,4.000000,4.000000,4.000000,4.000000,4.000000,4.000000,4.000000,4.000000,2.000000,4.000000,4.000000,1.000000,41.666668
1601229333.722816,19.000000,0.000000,3923.076904,4599.487305,4155.897461,4268.717773,3991.281982,4622.051270,3971.281982,3884.615479,4337.948730,4030.769287,4267.692383,4155.384766,4120.000000,4025.128174,0.000000,4.000000,,,,0.000000,2.000000,4.000000,4.000000,4.000000,4.000000,4.000000,4.000000,4.000000,4.000000,4.000000,2.000000,4.000000,4.000000,1.000000,41.666668
1601229333.730545,20.000000,0.000000,3920.512939,4598.461426,4153.846191,4261.538574,3994.358887,4616.922852,3964.102539,3878.974365,4333.333496,4024.102539,4268.205078,4152.307617,4117.948730,4025.641113,0.000000,4.000000,,,,0.000000,2.000000,4.000000,4.000000,4.000000,4.000000,4.000000,4.000000,4.000000,4.000000,4.000000,2.000000,4.000000,4.000000,1.000000,41.666668
1601229333.738374,21.000000,0.000000,3918.461426,4596.922852,4151.794922,4256.922852,3987.179443,4614.871582,3958.974365,3872.820557,4329.230957,4022.564209,4268.717773,4144.615234,4122.563965,4023.589844,0.000000,4.000000,,,,0.000000,2.000000,4.000000,4.000000,4.000000,4.000000,4.000000,4.000000,4.000000,4.000000,4.000000,2.000000,4.000000,4.000000,1.000000,41.666668
1601229333.746103,22.000000,0.000000,3916.923096,4592.820313,4153.846191,4259.487305,3983.589844,4617.948730,3962.564209,3878.461426,4328.717773,4023.589844,4265.641113,4139.487305,4118.461426,4014.358887,0.000000,4.000000,,,,0.000000,2.000000,4.000000,4.000000,4.000000,4.000000,4.000000,4.000000,4.000000,4.000000,4.000000,2.000000,4.000000,4.000000,1.000000,41.666668
1601229333.753932,23.000000,0.000000,3916.410156,4591.794922,4156.410156,4258.974121,3984.102539,4614.358887,3969.230713,3886.153809,4331.282227,4021.025635,4262.563965,4138.461426,4104.615234,4008.205078,0.000000,4.000000,,,,0.000000,2.000000,4.000000,4.000000,4.000000,4.000000,4.000000,4.000000,4.000000,4.000000,4.000000,2.000000,4.000000,4.000000,1.000000,41.666668
1601229333.761660,24.000000,0.000000,3917.948730,4593.333496,4154.358887,4253.846191,3978.974365,4605.641113,3967.179443,3880.000000,4327.692383,4010.256348,4258.461426,4137.436035,4093.333252,4010.769287,0.000000,4.000000,,,,0.000000,2.000000,4.000000,4.000000,4.000000,4.000000,4.000000,4.000000,4.000000,4.000000,4.000000,2.000000,4.000000,4.000000,1.000000,41.666668
1601229333.769595,25.000000,0.000000,3916.410156,4594.358887,4151.794922,4252.307617,3972.820557,4608.205078,3963.589844,3876.923096,4325.128418,4002.564209,4256.922852,4142.051270,4093.333252,4014.871826,0.000000,4.000000,,,,0.000000,2.000000,4.000000,4.000000,4.000000,4.000000,4.000000,4.000000,4.000000,4.000000,4.000000,2.000000,4.000000,4.000000,1.000000,41.666668
1601229333.777430,26.000000,0.000000,3916.410156,4598.974121,4154.358887,4255.897461,3977.435791,4618.974121,3970.769287,3888.718018,4335.384766,4012.307617,4262.051270,4150.769043,4101.025879,4014.358887,0.000000,4.000000,,,,0.000000,2.000000,4.000000,4.000000,4.000000,4.000000,4.000000,4.000000,4.000000,4.000000,4.000000,2.000000,4.000000,4.000000,1.000000,41.666668
1601229333.785364,27.000000,0.000000,3917.435791,4607.179688,4151.794922,4261.025879,3991.794922,4622.051270,3981.538574,3896.923096,4348.205078,4026.153809,4265.128418,4149.743652,4104.102539,4011.281982,0.000000,4.000000,,,,0.000000,2.000000,4.000000,4.000000,4.000000,4.000000,4.000000,4.000000,4.000000,4.000000,4.000000,2.000000,4.000000,4.000000,1.000000,41.666668
1601229333.793197,28.000000,0.000000,3916.923096,4602.051270,4144.102539,4261.025879,3992.307617,4616.410156,3978.974365,3892.307617,4347.179688,4022.564209,4261.538574,4142.563965,4101.025879,4012.820557,0.000000,4.000000,,,,0.000000,2.000000,4.000000,4.000000,4.000000,4.000000,4.000000,4.000000,4.000000,4.000000,4.000000,2.000000,4.000000,4.000000,1.000000,41.666668
1601229333.801131,29.000000,0.000000,3922.051270,4598.461426,4146.153809,4263.589844,3986.666748,4616.410156,3972.820557,3889.743652,4345.641113,4022.051270,4265.128418,4145.641113,4109.230957,4015.384521,0.000000,4.000000,,,,0.000000,2.000000,4.000000,4.000000,4.000000,4.000000,4.000000,4.000000,4.000000,4.000000,4.000000,2.000000,4.000000,4.000000,1.000000,41.666668
1601229333.808964,30.000000,0.000000,3930.256348,4613.846191,4153.846191,4270.769043,3990.769287,4623.589844,3975.384521,3890.769287,4350.256348,4031.281982,4269.743652,4152.820313,4118.461426,4019.487061,0.000000,4.000000,,,,0.000000,2.000000,4.000000,4.000000,4.000000,4.000000,4.000000,4.000000,4.000000,4.000000,4.000000,2.000000,4.000000,4.000000,1.000000,41.666668
1601229333.816897,31.000000,0.000000,3931.794922,4618.974121,4157.436035,4272.820313,3997.948730,4627.692383,3982.564209,3889.230713,4348.717773,4029.743652,4269.230957,4155.384766,4114.358887,4017.948730,0.000000,4.000000,,,,0.000000,2.000000,4.000000,4.000000,4.000000,4.000000,4.000000,4.000000,4.000000,4.000000,4.000000,2.000000,4.000000,4.000000,1.000000,41.666668
1601229333.824730,32.000000,0.000000,3928.718018,4602.563965,4155.384766,4268.205078,3991.281982,4616.922852,3975.384521,3878.461426,4330.769043,4006.666748,4262.563965,4150.769043,4099.487305,4013.333252,0.000000,4.000000,,,,0.000000,2.000000,4.000000,4.000000,4.000000,4.000000,4.000000,4.000000,4.000000,4.000000,4.000000,2.000000,4.000000,4.000000,1.000000,41.666668
1601229333.832662,33.000000,0.000000,3929.230713,4605.128418,4152.820313,4269.230957,3983.589844,4612.307617,3968.718018,3870.769287,4324.102539,3992.307617,4254.871582,4146.666504,4092.820557,4009.743652,0.000000,4.000000,,,,0.000000,2.000000,4.000000,4.000000,4.000000,4.000000,4.000000,4.000000,4.000000,4.000000,4.000000,2.000000,4.000000,4.000000,1.000000,41.666668
1601229333.840494,34.000000,0.000000,3928.718018,4614.871582,4154.358887,4268.717773,3984.102539,4616.922852,3972.307617,3877.435791,4332.307617,3997.948730,4254.871582,4149.230957,4095.384521,4013.333252,0.000000,4.000000,,,,0.000000,2.000000,4.000000,4.000000,4.000000,4.000000,4.000000,4.000000,4.000000,4.000000,4.000000,2.000000,4.000000,4.000000,1.000000,41.666668
1601229333.848226,35.000000,0.000000,3933.333252,4618.461426,4161.538574,4270.256348,3990.769287,4620.512695,3978.461426,3892.820557,4341.538574,4012.820557,4265.128418,4155.384766,4104.615234,4019.487061,0.000000,4.000000,,,,0.000000,2.000000,4.000000,4.000000,4.000000,4.000000,4.000000,4.000000,4.000000,4.000000,4.000000,2.000000,4.000000,4.000000,1.000000,41.666668
1601229333.856057,36.000000,0.000000,3944.615479,4633.333496,4164.102539,4276.922852,3992.307617,4619.487305,3977.948730,3899.487061,4346.666504,4018.974365,4273.846191,4159.487305,4111.794922,4022.564209,0.000000,4.000000,,,,0.000000,2.000000,4.000000,4.000000,4.000000,4.000000,4.000000,4.000000,4.000000,4.000000,4.000000,2.000000,4.000000,4.000000,1.000000,41.666668
1601229333.863788,37.000000,0.000000,3951.281982,4644.615234,4166.666504,4281.538574,3995.384521,4618.974121,3978.461426,3894.871826,4348.205078,4013.333252,4272.307617,4164.102539,4107.692383,4020.000000,0.000000,4.000000,,,,0.000000,2.000000,4.000000,4.000000,4.000000,4.000000,4.000000,4.000000,4.000000,4.000000,4.000000,2.000000,4.000000,4.000000,1.000000,41.666668
1601229333.871619,38.000000,0.000000,3948.718018,4633.846191,4169.230957,4283.077148,3997.435791,4616.922852,3976.410156,3890.256348,4343.589844,4011.794922,4271.282227,4167.179688,4105.641113,4021.025635,0.000000,4.000000,,,,0.000000,2.000000,4.000000,4.000000,4.000000,4.000000,4.000000,4.000000,4.000000,4.000000,4.000000,2.000000,4.000000,4.000000,1.000000,41.666668
1601229333.879349,39.000000,0.000000,3941.025635,4631.794922,4162.051270,4285.128418,3995.384521,4611.794922,3967.692383,3886.153809,4335.384766,4012.307617,4271.282227,4161.538574,4107.692383,4018.974365,0.000000,4.000000,,,,0.000000,2.000000,4.000000,4.000000,4.000000,4.000000,4.000000,4.000000,4.000000,4.000000,4.000000,2.000000,4.000000,4.000000,1.000000,41.666668
1601229333.887179,40.000000,0.000000,3937.435791,4637.948730,4154.358887,4281.025879,3993.846191,4610.256348,3963.589844,3885.128174,4330.769043,4006.666748,4267.692383,4154.871582,4105.641113,4014.358887,0.000000,4.000000,,,,0.000000,2.000000,4.000000,4.000000,4.000000,4.000000,4.000000,4.000000,4.000000,4.000000,4.000000,2.000000,4.000000,4.000000,1.000000,41.666668
1601229333.894909,41.000000,0.000000,3938.974365,4627.179688,4158.461426,4264.102539,3990.256348,4608.717773,3964.102539,3885.128174,4326.153809,3996.923096,4263.589844,4153.333496,4100.000000,4013.333252,0.000000,4.000000,,,,0.000000,2.000000,4.000000,4.000000,4.000000,4.000000,4.000000,4.000000,4.000000,4.000000,4.000000,2.000000,4.000000,4.000000,1.000000,41.666668
1601229333.902739,42.000000,0.000000,3941.538574,4626.153809,4161.025879,4262.563965,3992.820557,4611.282227,3964.615479,3882.051270,4320.512695,3992.820557,4260.512695,4152.820313,4094.358887,4016.923096,0.000000,4.000000,,,,0.000000,2.000000,4.000000,4.000000,4.000000,4.000000,4.000000,4.000000,4.000000,4.000000,4.000000,2.000000,4.000000,4.000000,1.000000,41.666668
1601229333.910468,43.000000,0.000000,3943.076904,4638.461426,4154.871582,4277.948730,3997.948730,4614.871582,3963.589844,3875.897461,4317.948730,3992.820557,4261.025879,4154.358887,4095.384521,4028.718018,0.000000,4.000000,,,,0.000000,2.000000,4.000000,4.000000,4.000000,4.000000,4.000000,4.000000,4.000000,4.000000,4.000000,2.000000,4.000000,4.000000,1.000000,41.666668
1601229333.918297,44.000000,0.000000,3944.615479,4634.871582,4155.897461,4284.102539,3996.923096,4611.282227,3964.102539,3874.871826,4320.512695,3993.333252,4267.692383,4158.461426,4104.102539,4041.538574,0.000000,4.000000,,,,0.000000,2.000000,4.000000,4.000000,4.000000,4.000000,4.000000,4.000000,4.000000,4.000000,4.000000,2.000000,4.000000,4.000000,1.000000,41.666668
1601229333.926026,45.000000,0.000000,3946.153809,4625.641113,4163.077148,4276.410156,3989.743652,4609.743652,3966.153809,3878.974365,4320.512695,3992.820557,4271.794922,4162.051270,4111.282227,4044.615479,0.000000,4.000000,,,,0.000000,2.000000,4.000000,4.000000,4.000000,4.000000,4.000000,4.000000,4.000000,4.000000,4.000000,2.000000,4.000000,4.000000,1.000000,41.666668
1601229333.933854,46.000000,0.000000,3949.230713,4621.025879,4165.128418,4272.307617,3990.256348,4611.282227,3970.769287,3882.051270,4316.922852,3990.769287,4267.692383,4163.589844,4106.153809,4043.076904,0.000000,4.000000,,,,0.000000,2.000000,4.000000,4.000000,4.000000,4.000000,4.000000,4.000000,4.000000,4.000000,4.000000,2.000000,4.000000,4.000000,1.000000,41.666668
1601229333.941582,47.000000,0.000000,3947.179443,4612.820313,4163.589844,4267.179688,3988.205078,4601.538574,3968.205078,3877.948730,4316.410156,3987.692383,4263.077148,4161.538574,4098.974121,4043.076904,0.000000,4.000000,,,,0.000000,2.000000,4.000000,4.000000,4.000000,4.000000,4.000000,4.000000,4.000000,4.000000,4.000000,2.000000,4.000000,4.000000,1.000000,41.666668
1601229333.949409,48.000000,0.000000,3941.538574,4616.410156,4161.538574,4266.666504,3987.179443,4601.538574,3967.179443,3883.589844,4328.717773,4000.000000,4271.282227,4167.692383,4111.282227,4038.461426,0.000000,4.000000,,,,0.000000,2.000000,4.000000,4.000000,4.000000,4.000000,4.000000,4.000000,4.000000,4.000000,4.000000,2.000000,4.000000,4.000000,1.000000,41.666668
1601229333.957137,49.000000,0.000000,3943.589844,4628.205078,4158.461426,4277.436035,3999.487061,4617.436035,3971.794922,3896.923096,4345.641113,4020.000000,4278.461426,4181.025879,4119.487305,4038.461426,0.000000,4.000000,,,,0.000000,2.000000,4.000000,4.000000,4.000000,4.000000,4.000000,4.000000,4.000000,4.000000,4.000000,2.000000,4.000000,4.000000,1.000000,41.666668
1601229333.965070,50.000000,0.000000,3951.794922,4631.282227,4159.487305,4284.615234,4012.820557,4626.153809,3973.333252,3903.589844,4360.000000,4036.410156,4282.051270,4186.153809,4120.000000,4040.000000,0.000000,4.000000,,,,0.000000,2.000000,4.000000,4.000000,4.000000,4.000000,4.000000,4.000000,4.000000,4.000000,4.000000,2.000000,4.000000,4.000000,1.000000,41.666668
1601229333.972904,51.000000,0.000000,3950.256348,4628.717773,4157.948730,4277.948730,4006.666748,4618.461426,3964.102539,3898.461426,4358.974121,4034.358887,4282.051270,4180.000000,4120.000000,4039.487061,0.000000,4.000000,,,,0.000000,2.000000,4.000000,4.000000,4.000000,4.000000,4.000000,4.000000,4.000000,4.000000,4.000000,2.000000,4.000000,4.000000,1.000000,41.666668
1601229333.980837,52.000000,0.000000,3943.076904,4630.769043,4151.282227,4274.871582,3998.461426,4613.846191,3960.000000,3890.769287,4343.589844,4020.512939,4275.384766,4174.358887,4116.410156,4037.435791,0.000000,4.000000,,,,0.000000,2.000000,4.000000,4.000000,4.000000,4.000000,4.000000,4.000000,4.000000,4.000000,4.000000,2.000000,4.000000,4.000000,1.000000,41.666668
1601229333.988670,53.000000,0.000000,3935.384521,4622.563965,4145.641113,4268.205078,3997.435791,4606.153809,3958.461426,3876.410156,4325.641113,4002.564209,4263.589844,4166.666504,4102.051270,4032.307617,0.000000,4.000000,,,,0.000000,2.000000,4.000000,4.000000,4.000000,4.000000,4.000000,4.000000,4.000000,4.000000,4.000000,2.000000,4.000000,4.000000,1.000000,41.666668
1601229333.996603,54.000000,0.000000,3932.307617,4613.846191,4146.153809,4261.538574,3995.897461,4600.000000,3958.461426,3866.153809,4313.333496,3988.718018,4258.461426,4160.512695,4090.256348,4025.641113,0.000000,4.000000,,,,0.000000,2.000000,4.000000,4.000000,4.000000,4.000000,4.000000,4.000000,4.000000,4.000000,4.000000,2.000000,4.000000,4.000000,1.000000,41.666668
1601229334.004436,55.000000,0.000000,3932.820557,4620.512695,4149.743652,4270.256348,3993.846191,4611.282227,3968.718018,3871.281982,4311.794922,3987.179443,4260.512695,4165.128418,4089.230713,4026.153809,0.000000,4.000000,,,,0.000000,2.000000,4.000000,4.000000,4.000000,4.000000,4.000000,4.000000,4.000000,4.000000,4.000000,2.000000,4.000000,4.000000,1.000000,41.666668
1601229334.012368,56.000000,0.000000,3932.307617,4627.692383,4155.897461,4276.922852,3995.384521,4618.461426,3976.410156,3874.358887,4311.794922,3987.692383,4259.487305,4169.743652,4092.820557,4022.051270,0.000000,4.000000,,,,0.000000,2.000000,4.000000,4.000000,4.000000,4.000000,4.000000,4.000000,4.000000,4.000000,4.000000,2.000000,4.000000,4.000000,1.000000,41.666668
1601229334.020199,57.000000,0.000000,3935.897461,4621.538574,4159.487305,4265.128418,3992.820557,4605.641113,3969.230713,3872.307617,4307.692383,3984.102539,4261.025879,4169.743652,4097.436035,4014.358887,0.000000,4.000000,,,,0.000000,2.000000,4.000000,4.000000,4.000000,4.000000,4.000000,4.000000,4.000000,4.000000,4.000000,2.000000,4.000000,4.000000,1.000000,41.666668
1601229334.027931,58.000000,0.000000,3946.153809,4622.563965,4163.077148,4264.102539,3993.333252,4603.077148,3965.641113,3880.000000,4313.846191,3989.230713,4266.153809,4174.358887,4102.051270,4022.051270,0.000000,4.000000,,,,0.000000,2.000000,4.000000,4.000000,4.000000,4.000000,4.000000,4.000000,4.000000,4.000000,4.000000,2.000000,4.000000,4.000000,1.000000,41.666668
1601229334.035762,59.000000,0.000000,3953.333252,4642.563965,4168.205078,4283.077148,4004.102539,4620.000000,3974.871826,3893.846191,4337.436035,4012.307617,4273.846191,4181.025879,4114.358887,4041.025635,0.000000,4.000000,,,,0.000000,2.000000,4.000000,4.000000,4.000000,4.000000,4.000000,4.000000,4.000000,4.000000,4.000000,2.000000,4.000000,4.000000,1.000000,41.666668
1601229334.043493,60.000000,0.000000,3954.358887,4650.256348,4169.230957,4291.794922,4004.102539,4619.487305,3970.256348,3896.923096,4349.743652,4024.615479,4280.512695,4182.051270,4123.589844,4049.230713,0.000000,4.000000,,,,0.000000,2.000000,4.000000,4.000000,4.000000,4.000000,4.000000,4.000000,4.000000,4.000000,4.000000,2.000000,4.000000,4.000000,1.000000,41.666668
1601229334.051324,61.000000,0.000000,3956.923096,4646.666504,4164.615234,4288.205078,4003.589844,4611.282227,3963.076904,3899.487061,4355.384766,4029.230713,4285.128418,4187.179688,4126.666504,4045.641113,0.000000,4.000000,,,,0.000000,2.000000,4.000000,4.000000,4.000000,4.000000,4.000000,4.000000,4.000000,4.000000,4.000000,2.000000,4.000000,4.000000,1.000000,41.666668
1601229334.059055,62.000000,0.000000,3957.435791,4646.153809,4167.692383,4286.666504,4011.794922,4621.025879,3971.281982,3907.179443,4365.128418,4038.974365,4290.769043,4193.333496,4132.820313,4040.000000,0.000000,4.000000,,,,0.000000,2.000000,4.000000,4.000000,4.000000,4.000000,4.000000,4.000000,4.000000,4.000000,4.000000,2.000000,4.000000,4.000000,1.000000,41.666668
1601229334.066886,63.000000,0.000000,3953.846191,4633.846191,4173.333496,4286.666504,4012.307617,4629.230957,3978.461426,3905.641113,4364.615234,4041.538574,4292.820313,4186.666504,4136.410156,4027.179443,0.000000,4.000000,,,,0.000000,2.000000,4.000000,4.000000,4.000000,4.000000,4.000000,4.000000,4.000000,4.000000,4.000000,2.000000,4.000000,4.000000,1.000000,41.666668
1601229334.074616,64.000000,0.000000,3946.666748,4618.974121,4165.641113,4283.589844,4002.051270,4621.538574,3975.897461,3891.794922,4348.205078,4025.641113,4281.025879,4172.307617,4123.077148,4016.410156,376.000000,4.000000,,,,0.000000,2.000000,4.000000,4.000000,4.000000,4.000000,4.000000,4.000000,4.000000,4.000000,4.000000,2.000000,4.000000,4.000000,1.000000,41.666668
1601229334.082446,65.000000,0.000000,3946.666748,4631.794922,4158.974121,4284.102539,4002.564209,4618.974121,3977.435791,3884.615479,4336.410156,4013.333252,4269.230957,4166.666504,4108.717773,4012.307617,431.000000,4.000000,,,,0.000000,2.000000,4.000000,4.000000,4.000000,4.000000,4.000000,4.000000,4.000000,4.000000,4.000000,2.000000,4.000000,4.000000,1.000000,41.666668
1601229334.090175,66.000000,0.000000,3950.256348,4641.025879,4161.538574,4282.051270,4000.512939,4616.410156,3971.794922,3880.512939,4323.589844,4005.641113,4268.717773,4170.256348,4103.077148,4012.307617,383.000000,4.000000,,,,0.000000,2.000000,4.000000,4.000000,4.000000,4.000000,4.000000,4.000000,4.000000,4.000000,4.000000,2.000000,4.000000,4.000000,1.000000,41.666668
1601229334.098004,67.000000,0.000000,3947.179443,4631.794922,4163.077148,4276.922852,3991.794922,4613.333496,3966.153809,3875.897461,4312.307617,3997.435791,4269.743652,4169.743652,4102.563965,4009.230713,437.000000,4.000000,,,,0.000000,2.000000,4.000000,4.000000,4.000000,4.000000,4.000000,4.000000,4.000000,4.000000,4.000000,2.000000,4.000000,4.000000,1.000000,41.666668
1601229334.105732,68.000000,0.000000,3940.512939,4625.641113,4159.487305,4272.307617,3992.820557,4613.333496,3966.666748,3872.307617,4308.717773,3990.769287,4263.077148,4159.487305,4097.436035,4007.179443,461.000000,4.000000,,,,0.000000,2.000000,4.000000,4.000000,4.000000,4.000000,4.000000,4.000000,4.000000,4.000000,4.000000,2.000000,4.000000,4.000000,1.000000,41.666668
1601229334.113561,69.000000,0.000000,3938.461426,4624.615234,4158.974121,4271.282227,3999.487061,4611.282227,3965.128174,3875.897461,4313.846191,3993.846191,4260.512695,4154.358887,4094.358887,4005.128174,437.000000,4.000000,,,,0.000000,2.000000,4.000000,4.000000,4.000000,4.000000,4.000000,4.000000,4.000000,4.000000,4.000000,2.000000,4.000000,4.000000,1.000000,41.666668
1601229334.121289,70.000000,0.000000,3938.974365,4623.077148,4162.051270,4274.871582,4000.000000,4614.358887,3966.153809,3886.153809,4326.153809,4004.615479,4268.205078,4162.051270,4101.538574,4004.615479,449.000000,4.000000,,,,0.000000,2.000000,4.000000,4.000000,4.000000,4.000000,4.000000,4.000000,4.000000,4.000000,4.000000,2.000000,4.000000,4.000000,1.000000,41.666668
1601229334.129117,71.000000,0.000000,3942.564209,4629.230957,4165.128418,4280.512695,4007.692383,4632.820313,3984.615479,3900.000000,4345.641113,4021.025635,4276.922852,4172.820313,4115.384766,4006.153809,355.000000,4.000000,,,,0.000000,2.000000,4.000000,4.000000,4.000000,4.000000,4.000000,4.000000,4.000000,4.000000,4.000000,2.000000,4.000000,4.000000,1.000000,41.666668
1601229334.136844,72.000000,0.000000,3946.666748,4628.717773,4164.102539,4283.077148,4014.358887,4645.128418,3997.435791,3907.179443,4360.512695,4030.769287,4279.487305,4173.333496,4119.487305,4011.281982,406.000000,4.000000,,,,0.000000,2.000000,4.000000,4.000000,4.000000,4.000000,4.000000,4.000000,4.000000,4.000000,4.000000,2.000000,4.000000,4.000000,1.000000,41.666668
1601229334.144778,73.000000,0.000000,3943.076904,4620.512695,4155.384766,4277.436035,4004.615479,4631.794922,3985.641113,3901.025635,4356.410156,4019.487061,4273.846191,4162.563965,4101.025879,4010.769287,409.000000,4.000000,,,,0.000000,2.000000,4.000000,4.000000,4.000000,4.000000,4.000000,4.000000,4.000000,4.000000,4.000000,2.000000,4.000000,4.000000,1.000000,41.666668
1601229334.152611,74.000000,0.000000,3935.897461,4623.589844,4149.230957,4274.358887,4000.512939,4618.974121,3974.871826,3892.307617,4345.641113,4009.230713,4265.641113,4156.922852,4088.205078,4003.076904,423.000000,4.000000,,,,0.000000,2.000000,4.000000,4.000000,4.000000,4.000000,4.000000,4.000000,4.000000,4.000000,4.000000,2.000000,4.000000,4.000000,1.000000,41.666668
1601229334.160544,75.000000,0.000000,3934.871826,4628.717773,4153.846191,4280.512695,4007.692383,4621.538574,3978.461426,3892.307617,4346.153809,4016.410156,4263.589844,4163.589844,4095.897461,4001.025635,43.000000,4.000000,,,,0.000000,2.000000,4.000000,4.000000,4.000000,4.000000,4.000000,4.000000,4.000000,4.000000,4.000000,2.000000,4.000000,4.000000,1.000000,41.666668
