title:your record name, start timestamp:1602278809.272953, stop timestamp:1602278839.527804, headset type:EPOC, headset serial:78691552, headset firmware:1e00, subject name:alzaabi.su, channels:38, sampling rate:128, samples:3870      , version:2.0
Timestamp,EEG.Counter,EEG.Interpolated,EEG.AF3,EEG.F7,EEG.F3,EEG.FC5,EEG.T7,EEG.P7,EEG.O1,EEG.O2,EEG.P8,EEG.T8,EEG.FC6,EEG.F4,EEG.F8,EEG.AF4,EEG.RawCq,EEG.Battery,MarkerIndex,MarkerType,MarkerValueInt,EEG.MarkerHardware,CQ.AF3,CQ.F7,CQ.F3,CQ.FC5,CQ.T7,CQ.P7,CQ.O1,CQ.O2,CQ.P8,CQ.T8,CQ.FC6,CQ.F4,CQ.F8,CQ.AF4,CQ.Overall
1602278809.272953,82.000000,0.000000,3915.897461,4616.922852,4166.666504,4245.641113,3915.384521,4616.410156,3957.948730,3875.384521,4307.692383,4020.000000,4218.461426,4141.025879,4067.179443,3928.718018,445.000000,4.000000,,,,0.000000,4.000000,4.000000,0.000000,4.000000,4.000000,4.000000,4.000000,4.000000,4.000000,1.000000,4.000000,4.000000,4.000000,2.000000,25.000000
1602278809.280874,83.000000,0.000000,3923.076904,4632.307617,4165.641113,4268.205078,3922.564209,4641.025879,3983.076904,3894.358887,4314.871582,4021.538574,4233.846191,4151.282227,4078.461426,3936.410156,234.000000,4.000000,,,,0.000000,4.000000,4.000000,0.000000,4.000000,4.000000,4.000000,4.000000,4.000000,4.000000,1.000000,4.000000,4.000000,4.000000,2.000000,25.000000
1602278809.288695,84.000000,0.000000,3919.487061,4638.461426,4166.153809,4277.948730,3920.000000,4622.563965,3975.384521,3895.384521,4318.461426,4015.384521,4225.641113,4147.179688,4081.025635,3931.281982,425.000000,4.000000,,,,0.000000,4.000000,4.000000,0.000000,4.000000,4.000000,4.000000,4.000000,4.000000,4.000000,1.000000,4.000000,4.000000,4.000000,2.000000,25.000000
1602278809.296616,85.000000,0.000000,3918.461426,4636.410156,4171.794922,4270.769043,3918.974365,4615.384766,3961.538574,3883.076904,4310.769043,4014.871826,4224.102539,4145.128418,4081.025635,3930.769287,355.000000,4.000000,,,,0.000000,4.000000,4.000000,0.000000,4.000000,4.000000,4.000000,4.000000,4.000000,4.000000,1.000000,4.000000,4.000000,4.000000,2.000000,25.000000
1602278809.304437,86.000000,0.000000,3923.589844,4639.487305,4169.743652,4270.769043,3936.923096,4637.948730,3971.794922,3888.718018,4312.307617,4020.000000,4229.230957,4147.179688,4081.538574,3933.846191,445.000000,4.000000,,,,0.000000,4.000000,4.000000,0.000000,4.000000,4.000000,4.000000,4.000000,4.000000,4.000000,1.000000,4.000000,4.000000,4.000000,2.000000,25.000000
1602278809.312158,87.000000,0.000000,3921.025635,4638.974121,4166.153809,4265.641113,3942.564209,4630.256348,3970.769287,3890.769287,4309.743652,4018.461426,4217.436035,4140.000000,4074.871826,3926.666748,234.000000,4.000000,,,,0.000000,4.000000,4.000000,0.000000,4.000000,4.000000,4.000000,4.000000,4.000000,4.000000,1.000000,4.000000,4.000000,4.000000,2.000000,25.000000
1602278809.319979,88.000000,0.000000,3918.461426,4634.871582,4167.692383,4263.589844,3925.128174,4609.230957,3960.000000,3877.948730,4296.922852,4012.307617,4211.794922,4138.974121,4069.230713,3925.128174,425.000000,4.000000,,,,0.000000,4.000000,4.000000,0.000000,4.000000,4.000000,4.000000,4.000000,4.000000,4.000000,1.000000,4.000000,4.000000,4.000000,2.000000,25.000000
1602278809.327700,89.000000,0.000000,3921.538574,4633.846191,4167.692383,4274.871582,3919.487061,4617.948730,3964.102539,3876.923096,4297.948730,4014.358887,4224.102539,4144.615234,4074.358887,3930.256348,355.000000,4.000000,,,,0.000000,4.000000,4.000000,0.000000,4.000000,4.000000,4.000000,4.000000,4.000000,4.000000,1.000000,4.000000,4.000000,4.000000,2.000000,25.000000
1602278809.335521,90.000000,0.000000,3922.051270,4633.846191,4169.230957,4270.256348,3931.794922,4622.563965,3964.102539,3890.769287,4309.743652,4021.025635,4231.282227,4146.153809,4080.512939,3931.281982,445.000000,4.000000,,,,0.000000,4.000000,4.000000,0.000000,4.000000,4.000000,4.000000,4.000000,4.000000,4.000000,1.000000,4.000000,4.000000,4.000000,2.000000,25.000000
1602278809.343242,91.000000,0.000000,3924.102539,4632.820313,4169.230957,4267.179688,3932.820557,4612.820313,3963.589844,3899.487061,4316.410156,4021.538574,4235.897461,4147.179688,4082.051270,3931.794922,234.000000,4.000000,,,,0.000000,4.000000,4.000000,0.000000,4.000000,4.000000,4.000000,4.000000,4.000000,4.000000,1.000000,4.000000,4.000000,4.000000,2.000000,25.000000
1602278809.351063,92.000000,0.000000,3930.256348,4633.846191,4164.615234,4281.538574,3926.666748,4618.461426,3974.871826,3893.333252,4316.922852,4020.000000,4239.487305,4150.769043,4081.538574,3936.410156,425.000000,4.000000,,,,0.000000,4.000000,4.000000,0.000000,4.000000,4.000000,4.000000,4.000000,4.000000,4.000000,1.000000,4.000000,4.000000,4.000000,2.000000,25.000000
1602278809.358784,93.000000,0.000000,3929.230713,4627.179688,4162.051270,4277.436035,3928.205078,4630.769043,3977.948730,3886.666748,4319.487305,4019.487061,4235.897461,4149.230957,4081.538574,3934.358887,355.000000,4.000000,,,,0.000000,4.000000,4.000000,0.000000,4.000000,4.000000,4.000000,4.000000,4.000000,4.000000,1.000000,4.000000,4.000000,4.000000,2.000000,25.000000
1602278809.366605,94.000000,0.000000,3924.615479,4619.487305,4167.692383,4254.871582,3921.538574,4633.846191,3973.333252,3895.384521,4323.589844,4018.974365,4232.820313,4150.256348,4086.153809,3931.794922,445.000000,4.000000,,,,0.000000,4.000000,4.000000,0.000000,4.000000,4.000000,4.000000,4.000000,4.000000,4.000000,1.000000,4.000000,4.000000,4.000000,2.000000,25.000000
1602278809.374326,95.000000,0.000000,3923.076904,4620.000000,4166.666504,4246.666504,3920.000000,4629.743652,3978.461426,3899.487061,4318.461426,4019.487061,4234.871582,4154.871582,4087.692383,3929.743652,234.000000,4.000000,,,,0.000000,4.000000,4.000000,0.000000,4.000000,4.000000,4.000000,4.000000,4.000000,4.000000,1.000000,4.000000,4.000000,4.000000,2.000000,25.000000
1602278809.382146,96.000000,0.000000,3918.461426,4621.538574,4164.102539,4249.230957,3932.307617,4621.025879,3973.846191,3883.589844,4303.589844,4019.487061,4235.384766,4148.205078,4074.358887,3926.666748,425.000000,4.000000,,,,0.000000,4.000000,4.000000,0.000000,4.000000,4.000000,4.000000,4.000000,4.000000,4.000000,1.000000,4.000000,4.000000,4.000000,2.000000,25.000000
1602278809.389867,97.000000,0.000000,3913.846191,4628.717773,4168.717773,4252.820313,3936.923096,4621.538574,3966.153809,3874.358887,4300.512695,4017.948730,4229.743652,4137.948730,4066.153809,3925.641113,355.000000,4.000000,,,,0.000000,4.000000,4.000000,0.000000,4.000000,4.000000,4.000000,4.000000,4.000000,4.000000,1.000000,4.000000,4.000000,4.000000,2.000000,25.000000
1602278809.397789,98.000000,0.000000,3918.974365,4636.922852,4171.282227,4253.846191,3933.333252,4632.820313,3969.743652,3884.102539,4306.666504,4015.897461,4224.102539,4138.974121,4069.743652,3927.179443,445.000000,4.000000,,,,0.000000,4.000000,4.000000,0.000000,4.000000,4.000000,4.000000,4.000000,4.000000,4.000000,1.000000,4.000000,4.000000,4.000000,2.000000,25.000000
1602278809.405610,99.000000,0.000000,3917.948730,4627.179688,4166.153809,4241.538574,3933.846191,4622.051270,3960.000000,3878.974365,4295.897461,4014.358887,4215.897461,4138.974121,4064.102539,3924.102539,234.000000,4.000000,,,,0.000000,4.000000,4.000000,0.000000,4.000000,4.000000,4.000000,4.000000,4.000000,4.000000,1.000000,4.000000,4.000000,4.000000,2.000000,25.000000
1602278809.413431,100.000000,0.000000,3905.641113,4614.358887,4165.641113,4230.256348,3934.358887,4606.153809,3954.358887,3871.281982,4287.179688,4014.871826,4213.846191,4135.384766,4058.974365,3922.564209,425.000000,4.000000,,,,0.000000,4.000000,4.000000,0.000000,4.000000,4.000000,4.000000,4.000000,4.000000,4.000000,1.000000,4.000000,4.000000,4.000000,2.000000,25.000000
1602278809.421152,101.000000,0.000000,3905.641113,4618.461426,4168.205078,4232.820313,3930.769287,4624.102539,3976.410156,3885.128174,4305.641113,4016.410156,4220.512695,4138.974121,4068.205078,3925.641113,355.000000,4.000000,,,,0.000000,4.000000,4.000000,0.000000,4.000000,4.000000,4.000000,4.000000,4.000000,4.000000,1.000000,4.000000,4.000000,4.000000,2.000000,25.000000
1602278809.429073,102.000000,0.000000,3914.871826,4626.666504,4166.153809,4240.000000,3930.256348,4643.589844,3990.256348,3896.410156,4323.589844,4017.948730,4226.153809,4144.102539,4074.358887,3928.205078,445.000000,4.000000,,,,0.000000,4.000000,4.000000,0.000000,4.000000,4.000000,4.000000,4.000000,4.000000,4.000000,1.000000,4.000000,4.000000,4.000000,2.000000,25.000000
1602278809.436894,103.000000,0.000000,3916.410156,4627.692383,4166.666504,4247.692383,3937.948730,4633.846191,3978.974365,3900.000000,4321.538574,4020.000000,4226.153809,4144.615234,4076.410156,3929.743652,234.000000,4.000000,,,,0.000000,4.000000,4.000000,0.000000,4.000000,4.000000,4.000000,4.000000,4.000000,4.000000,1.000000,4.000000,4.000000,4.000000,2.000000,25.000000
1602278809.444815,104.000000,0.000000,3913.333252,4623.077148,4168.717773,4249.743652,3943.076904,4621.538574,3972.307617,3906.666748,4317.436035,4021.538574,4228.205078,4147.179688,4083.076904,3932.820557,425.000000,4.000000,,,,0.000000,4.000000,4.000000,0.000000,4.000000,4.000000,4.000000,4.000000,4.000000,4.000000,1.000000,4.000000,4.000000,4.000000,2.000000,25.000000
1602278809.452636,105.000000,0.000000,3918.974365,4614.358887,4168.205078,4243.077148,3932.820557,4629.743652,3979.487061,3906.666748,4317.948730,4021.538574,4235.897461,4155.384766,4086.666748,3936.923096,355.000000,4.000000,,,,0.000000,4.000000,4.000000,0.000000,4.000000,4.000000,4.000000,4.000000,4.000000,4.000000,1.000000,4.000000,4.000000,4.000000,2.000000,25.000000
1602278809.460557,106.000000,0.000000,3924.102539,4616.410156,4167.179688,4243.589844,3930.769287,4633.333496,3978.974365,3896.410156,4317.436035,4019.487061,4235.897461,4157.436035,4084.102539,3937.435791,445.000000,4.000000,,,,0.000000,4.000000,4.000000,0.000000,4.000000,4.000000,4.000000,4.000000,4.000000,4.000000,1.000000,4.000000,4.000000,4.000000,2.000000,25.000000
1602278809.468378,107.000000,0.000000,3921.025635,4629.230957,4167.692383,4248.205078,3940.000000,4614.871582,3966.153809,3893.846191,4314.358887,4018.461426,4228.717773,4154.358887,4079.487061,3935.897461,234.000000,4.000000,,,,0.000000,4.000000,4.000000,0.000000,4.000000,4.000000,4.000000,4.000000,4.000000,4.000000,1.000000,4.000000,4.000000,4.000000,2.000000,25.000000
1602278809.476299,108.000000,0.000000,3924.615479,4634.871582,4166.666504,4246.666504,3937.948730,4616.922852,3968.718018,3902.564209,4314.358887,4023.076904,4235.384766,4154.358887,4085.641113,3939.487061,425.000000,4.000000,,,,0.000000,4.000000,4.000000,0.000000,4.000000,4.000000,4.000000,4.000000,4.000000,4.000000,1.000000,4.000000,4.000000,4.000000,2.000000,25.000000
1602278809.484120,109.000000,0.000000,3934.871826,4637.436035,4168.717773,4250.256348,3944.615479,4646.153809,3992.820557,3913.333252,4327.179688,4027.179443,4249.743652,4160.512695,4107.179688,3946.153809,355.000000,4.000000,,,,0.000000,4.000000,4.000000,0.000000,4.000000,4.000000,4.000000,4.000000,4.000000,4.000000,1.000000,4.000000,4.000000,4.000000,2.000000,25.000000
1602278809.492041,110.000000,0.000000,3931.281982,4638.974121,4168.717773,4253.333496,3962.051270,4644.615234,3993.846191,3916.410156,4331.794922,4024.102539,4247.692383,4161.025879,4107.179688,3943.076904,445.000000,4.000000,,,,0.000000,4.000000,4.000000,0.000000,4.000000,4.000000,4.000000,4.000000,4.000000,4.000000,1.000000,4.000000,4.000000,4.000000,2.000000,25.000000
1602278809.499862,111.000000,0.000000,3925.641113,4634.871582,4171.282227,4252.307617,3953.846191,4623.077148,3974.871826,3907.692383,4318.974121,4026.153809,4242.051270,4157.948730,4093.333252,3940.512939,234.000000,4.000000,,,,0.000000,4.000000,4.000000,0.000000,4.000000,4.000000,4.000000,4.000000,4.000000,4.000000,1.000000,4.000000,4.000000,4.000000,2.000000,25.000000
1602278809.507583,112.000000,0.000000,3936.410156,4636.410156,4173.333496,4260.512695,3942.051270,4635.384766,3983.076904,3910.769287,4322.051270,4031.281982,4252.307617,4167.179688,4099.487305,3946.666748,425.000000,4.000000,,,,0.000000,4.000000,4.000000,0.000000,4.000000,4.000000,4.000000,4.000000,4.000000,4.000000,1.000000,4.000000,4.000000,4.000000,2.000000,25.000000
1602278809.515404,113.000000,0.000000,3941.025635,4643.077148,4171.794922,4263.589844,3947.692383,4645.641113,3994.871826,3926.153809,4337.948730,4025.641113,4251.794922,4170.769043,4100.512695,3947.179443,355.000000,4.000000,,,,0.000000,4.000000,4.000000,0.000000,4.000000,4.000000,4.000000,4.000000,4.000000,4.000000,1.000000,4.000000,4.000000,4.000000,2.000000,25.000000
1602278809.523125,114.000000,0.000000,3927.692383,4633.333496,4168.205078,4256.410156,3946.153809,4626.666504,3977.435791,3917.435791,4327.692383,4019.487061,4237.948730,4161.538574,4085.641113,3939.487061,445.000000,4.000000,,,,0.000000,4.000000,4.000000,0.000000,4.000000,4.000000,4.000000,4.000000,4.000000,4.000000,1.000000,4.000000,4.000000,4.000000,2.000000,25.000000
1602278809.530946,115.000000,0.000000,3921.538574,4616.922852,4169.743652,4253.333496,3940.512939,4621.025879,3967.179443,3896.410156,4312.307617,4022.051270,4236.410156,4157.948730,4088.205078,3938.974365,234.000000,4.000000,,,,0.000000,4.000000,4.000000,0.000000,4.000000,4.000000,4.000000,4.000000,4.000000,4.000000,1.000000,4.000000,4.000000,4.000000,2.000000,25.000000
1602278809.538667,116.000000,0.000000,3921.538574,4618.461426,4173.333496,4249.743652,3939.487061,4630.256348,3976.923096,3900.512939,4318.974121,4020.512939,4235.384766,4156.922852,4093.333252,3941.538574,425.000000,4.000000,,,,0.000000,4.000000,4.000000,0.000000,4.000000,4.000000,4.000000,4.000000,4.000000,4.000000,1.000000,4.000000,4.000000,4.000000,2.000000,25.000000
1602278809.546488,117.000000,0.000000,3916.410156,4625.128418,4173.333496,4243.589844,3937.948730,4629.743652,3980.512939,3911.794922,4323.077148,4017.435791,4227.692383,4151.282227,4086.153809,3940.000000,355.000000,4.000000,,,,0.000000,4.000000,4.000000,0.000000,4.000000,4.000000,4.000000,4.000000,4.000000,4.000000,1.000000,4.000000,4.000000,4.000000,2.000000,25.000000
1602278809.554209,118.000000,0.000000,3916.923096,4629.230957,4168.205078,4247.179688,3941.025635,4624.102539,3974.871826,3902.564209,4312.307617,4019.487061,4231.282227,4155.384766,4091.281982,3939.487061,445.000000,4.000000,,,,0.000000,4.000000,4.000000,0.000000,4.000000,4.000000,4.000000,4.000000,4.000000,4.000000,1.000000,4.000000,4.000000,4.000000,2.000000,25.000000
1602278809.562029,119.000000,0.000000,3918.461426,4633.846191,4165.641113,4248.205078,3942.564209,4614.871582,3970.256348,3888.718018,4304.615234,4020.512939,4237.948730,4160.512695,4095.897461,3940.512939,234.000000,4.000000,,,,0.000000,4.000000,4.000000,0.000000,4.000000,4.000000,4.000000,4.000000,4.000000,4.000000,1.000000,4.000000,4.000000,4.000000,2.000000,25.000000
1602278809.569750,120.000000,0.000000,3918.974365,4640.000000,4168.205078,4251.794922,3944.615479,4613.333496,3972.820557,3897.435791,4313.333496,4021.025635,4232.820313,4158.974121,4085.641113,3940.512939,425.000000,4.000000,,,,0.000000,4.000000,4.000000,0.000000,4.000000,4.000000,4.000000,4.000000,4.000000,4.000000,1.000000,4.000000,4.000000,4.000000,2.000000,25.000000
1602278809.577571,121.000000,0.000000,3923.076904,4642.563965,4171.282227,4263.077148,3949.743652,4637.436035,3984.102539,3919.487061,4330.256348,4022.564209,4230.256348,4158.461426,4085.128174,3940.000000,355.000000,4.000000,,,,0.000000,4.000000,4.000000,0.000000,4.000000,4.000000,4.000000,4.000000,4.000000,4.000000,1.000000,4.000000,4.000000,4.000000,2.000000,25.000000
1602278809.585292,122.000000,0.000000,3922.564209,4635.897461,4170.769043,4256.410156,3949.743652,4650.769043,3991.794922,3923.076904,4334.871582,4024.615479,4237.436035,4158.461426,4090.769287,3940.000000,445.000000,4.000000,,,,0.000000,4.000000,4.000000,0.000000,4.000000,4.000000,4.000000,4.000000,4.000000,4.000000,1.000000,4.000000,4.000000,4.000000,2.000000,25.000000
1602278809.593213,123.000000,0.000000,3918.974365,4629.230957,4166.153809,4246.666504,3953.846191,4633.846191,3986.666748,3911.794922,4329.230957,4027.692383,4244.615234,4155.897461,4095.897461,3941.025635,234.000000,4.000000,,,,0.000000,4.000000,4.000000,0.000000,4.000000,4.000000,4.000000,4.000000,4.000000,4.000000,1.000000,4.000000,4.000000,4.000000,2.000000,25.000000
1602278809.601034,124.000000,0.000000,3925.128174,4634.358887,4167.692383,4261.025879,3960.000000,4628.205078,3983.589844,3911.794922,4331.282227,4027.179443,4249.230957,4161.025879,4105.641113,3946.153809,425.000000,4.000000,,,,0.000000,4.000000,4.000000,0.000000,4.000000,4.000000,4.000000,4.000000,4.000000,4.000000,1.000000,4.000000,4.000000,4.000000,2.000000,25.000000
1602278809.608955,125.000000,0.000000,3927.692383,4637.436035,4170.769043,4267.179688,3948.718018,4634.871582,3982.051270,3918.461426,4334.871582,4022.564209,4247.179688,4165.641113,4106.153809,3946.666748,355.000000,4.000000,,,,0.000000,4.000000,4.000000,0.000000,4.000000,4.000000,4.000000,4.000000,4.000000,4.000000,1.000000,4.000000,4.000000,4.000000,2.000000,25.000000
1602278809.616776,126.000000,0.000000,3920.512939,4626.153809,4169.230957,4250.256348,3940.512939,4621.538574,3968.205078,3904.615479,4320.000000,4021.025635,4238.974121,4158.461426,4094.871826,3942.051270,445.000000,4.000000,,,,0.000000,4.000000,4.000000,0.000000,4.000000,4.000000,4.000000,4.000000,4.000000,4.000000,1.000000,4.000000,4.000000,4.000000,2.000000,25.000000
1602278809.624697,127.000000,0.000000,3920.000000,4620.000000,4167.179688,4243.077148,3953.333252,4612.307617,3964.615479,3893.846191,4306.666504,4021.538574,4234.358887,4152.307617,4091.281982,3939.487061,234.000000,4.000000,,,,0.000000,4.000000,4.000000,0.000000,4.000000,4.000000,4.000000,4.000000,4.000000,4.000000,1.000000,4.000000,4.000000,4.000000,2.000000,25.000000
1602278809.632518,128.000000,0.000000,3925.641113,4624.615234,4171.282227,4258.974121,3955.897461,4632.307617,3987.692383,3909.743652,4322.563965,4022.051270,4237.948730,4155.384766,4093.333252,3942.564209,425.000000,4.000000,,,,0.000000,4.000000,4.000000,0.000000,4.000000,4.000000,4.000000,4.000000,4.000000,4.000000,1.000000,4.000000,4.000000,4.000000,2.000000,25.000000
1602278809.640439,0.000000,0.000000,3916.923096,4627.179688,4170.769043,4266.153809,3944.102539,4640.000000,3992.820557,3918.974365,4338.974121,4024.615479,4235.897461,4153.846191,4085.641113,3941.538574,0.000000,4.000000,,,,0.000000,4.000000,4.000000,0.000000,4.000000,4.000000,4.000000,4.000000,4.000000,4.000000,1.000000,4.000000,4.000000,4.000000,2.000000,25.000000
1602278809.648260,1.000000,0.000000,3907.692383,4624.102539,4169.230957,4248.717773,3950.256348,4623.589844,3974.358887,3908.718018,4329.743652,4024.102539,4232.307617,4144.615234,4084.102539,3940.000000,426.000000,4.000000,,,,0.000000,4.000000,4.000000,0.000000,4.000000,4.000000,4.000000,4.000000,4.000000,4.000000,1.000000,4.000000,4.000000,4.000000,2.000000,25.000000
1602278809.656181,2.000000,0.000000,3912.820557,4615.897461,4168.205078,4235.384766,3962.051270,4617.436035,3973.333252,3901.538574,4317.436035,4020.000000,4233.846191,4142.563965,4092.307617,3940.000000,387.000000,4.000000,,,,0.000000,4.000000,4.000000,0.000000,4.000000,4.000000,4.000000,4.000000,4.000000,4.000000,1.000000,4.000000,4.000000,4.000000,2.000000,25.000000
1602278809.664002,3.000000,0.000000,3915.384521,4610.769043,4167.179688,4242.563965,3950.769287,4620.000000,3971.794922,3888.718018,4306.666504,4019.487061,4224.102539,4142.563965,4082.564209,3935.384521,444.000000,4.000000,,,,0.000000,4.000000,4.000000,0.000000,4.000000,4.000000,4.000000,4.000000,4.000000,4.000000,1.000000,4.000000,4.000000,4.000000,2.000000,25.000000
1602278809.671923,4.000000,0.000000,3912.307617,4623.077148,4168.717773,4250.256348,3944.102539,4624.102539,3961.025635,3876.923096,4296.922852,4018.974365,4215.897461,4141.538574,4066.666748,3933.846191,476.000000,4.000000,,,,0.000000,4.000000,4.000000,0.000000,4.000000,4.000000,4.000000,4.000000,4.000000,4.000000,1.000000,4.000000,4.000000,4.000000,2.000000,25.000000
1602278809.679744,5.000000,0.000000,3916.923096,4647.179688,4175.897461,4260.000000,3960.512939,4631.794922,3969.743652,3896.923096,4309.743652,4019.487061,4228.205078,4148.717773,4078.461426,3939.487061,415.000000,4.000000,,,,0.000000,4.000000,4.000000,0.000000,4.000000,4.000000,4.000000,4.000000,4.000000,4.000000,1.000000,4.000000,4.000000,4.000000,2.000000,25.000000
1602278809.687465,6.000000,0.000000,3925.128174,4651.282227,4176.410156,4270.256348,3969.230713,4626.153809,3974.871826,3909.230713,4321.025879,4020.000000,4235.897461,4150.769043,4094.871826,3942.051270,472.000000,4.000000,,,,0.000000,4.000000,4.000000,0.000000,4.000000,4.000000,4.000000,4.000000,4.000000,4.000000,1.000000,4.000000,4.000000,4.000000,2.000000,25.000000
1602278809.695287,7.000000,0.000000,3920.000000,4636.922852,4167.179688,4257.948730,3955.897461,4607.179688,3958.461426,3893.846191,4306.153809,4019.487061,4227.692383,4146.666504,4087.179443,3936.923096,393.000000,4.000000,,,,0.000000,4.000000,4.000000,0.000000,4.000000,4.000000,4.000000,4.000000,4.000000,4.000000,1.000000,4.000000,4.000000,4.000000,2.000000,25.000000
1602278809.703008,8.000000,0.000000,3916.923096,4635.384766,4164.102539,4242.051270,3948.718018,4615.897461,3964.615479,3899.487061,4307.692383,4020.000000,4228.205078,4153.846191,4086.153809,3939.487061,413.000000,4.000000,,,,0.000000,4.000000,4.000000,0.000000,4.000000,4.000000,4.000000,4.000000,4.000000,4.000000,1.000000,4.000000,4.000000,4.000000,2.000000,25.000000
1602278809.710828,9.000000,0.000000,3923.076904,4633.333496,4170.256348,4247.179688,3952.820557,4643.077148,3990.256348,3918.974365,4328.205078,4021.025635,4233.846191,4157.948730,4098.974121,3945.128174,57.000000,4.000000,,,,0.000000,4.000000,4.000000,0.000000,4.000000,4.000000,4.000000,4.000000,4.000000,4.000000,1.000000,4.000000,4.000000,4.000000,2.000000,25.000000
1602278809.718549,10.000000,0.000000,3921.538574,4620.512695,4172.820313,4250.256348,3949.743652,4641.538574,3988.205078,3914.358887,4321.538574,4021.025635,4223.077148,4148.205078,4088.205078,3942.051270,445.000000,4.000000,,,,0.000000,4.000000,4.000000,0.000000,4.000000,4.000000,4.000000,4.000000,4.000000,4.000000,1.000000,4.000000,4.000000,4.000000,2.000000,25.000000
1602278809.726370,11.000000,0.000000,3915.897461,4624.615234,4167.692383,4247.692383,3945.128174,4626.666504,3976.923096,3909.743652,4309.230957,4022.564209,4214.358887,4144.102539,4070.256348,3937.948730,232.000000,4.000000,,,,0.000000,4.000000,4.000000,0.000000,4.000000,4.000000,4.000000,4.000000,4.000000,4.000000,1.000000,4.000000,4.000000,4.000000,2.000000,25.000000
1602278809.734091,12.000000,0.000000,3915.384521,4628.205078,4167.692383,4247.692383,3943.589844,4619.487305,3970.256348,3906.153809,4306.666504,4021.025635,4211.282227,4145.641113,4068.205078,3938.974365,425.000000,4.000000,,,,0.000000,4.000000,4.000000,0.000000,4.000000,4.000000,4.000000,4.000000,4.000000,4.000000,1.000000,4.000000,4.000000,4.000000,2.000000,25.000000
1602278809.741912,13.000000,0.000000,3914.358887,4615.384766,4168.717773,4247.692383,3940.512939,4612.307617,3960.000000,3889.743652,4293.333496,4015.897461,4205.641113,4137.948730,4064.102539,3935.384521,355.000000,4.000000,,,,0.000000,4.000000,4.000000,0.000000,4.000000,4.000000,4.000000,4.000000,4.000000,4.000000,1.000000,4.000000,4.000000,4.000000,2.000000,25.000000
1602278809.749633,14.000000,0.000000,3915.897461,4620.512695,4167.692383,4250.769043,3940.000000,4616.410156,3964.102539,3890.769287,4291.794922,4015.384521,4212.307617,4138.461426,4061.538574,3937.435791,445.000000,4.000000,,,,0.000000,4.000000,4.000000,0.000000,4.000000,4.000000,4.000000,4.000000,4.000000,4.000000,1.000000,4.000000,4.000000,4.000000,2.000000,25.000000
1602278809.757454,15.000000,0.000000,3918.461426,4633.846191,4166.666504,4253.333496,3946.153809,4623.077148,3969.230713,3900.512939,4306.153809,4017.948730,4216.410156,4146.153809,4066.666748,3941.025635,232.000000,4.000000,,,,0.000000,4.000000,4.000000,0.000000,4.000000,4.000000,4.000000,4.000000,4.000000,4.000000,1.000000,4.000000,4.000000,4.000000,2.000000,25.000000
1602278809.765175,16.000000,0.000000,3913.846191,4618.974121,4169.230957,4249.743652,3952.307617,4615.384766,3958.974365,3897.435791,4302.563965,4019.487061,4204.102539,4143.077148,4065.641113,3936.410156,0.000000,4.000000,,,,0.000000,4.000000,4.000000,0.000000,4.000000,4.000000,4.000000,4.000000,4.000000,4.000000,1.000000,4.000000,4.000000,4.000000,2.000000,25.000000
1602278809.772996,17.000000,0.000000,3912.307617,4608.717773,4171.282227,4251.794922,3953.333252,4616.922852,3964.102539,3892.307617,4292.307617,4018.974365,4206.666504,4141.025879,4065.641113,3935.384521,0.000000,4.000000,,,,0.000000,4.000000,4.000000,0.000000,4.000000,4.000000,4.000000,4.000000,4.000000,4.000000,1.000000,4.000000,4.000000,4.000000,2.000000,25.000000
1602278809.780716,18.000000,0.000000,3918.461426,4627.692383,4171.794922,4257.948730,3949.230713,4628.717773,3984.102539,3894.871826,4302.563965,4019.487061,4223.589844,4149.230957,4076.923096,3943.589844,0.000000,4.000000,,,,0.000000,4.000000,4.000000,0.000000,4.000000,4.000000,4.000000,4.000000,4.000000,4.000000,1.000000,4.000000,4.000000,4.000000,2.000000,25.000000
1602278809.788637,19.000000,0.000000,3920.000000,4638.974121,4169.230957,4250.256348,3944.102539,4622.051270,3976.410156,3902.051270,4315.384766,4020.000000,4221.025879,4151.282227,4082.051270,3942.564209,0.000000,4.000000,,,,0.000000,4.000000,4.000000,0.000000,4.000000,4.000000,4.000000,4.000000,4.000000,4.000000,1.000000,4.000000,4.000000,4.000000,2.000000,25.000000
1602278809.796458,20.000000,0.000000,3918.461426,4631.282227,4169.230957,4245.128418,3943.076904,4614.358887,3965.128174,3905.128174,4314.871582,4019.487061,4213.846191,4145.128418,4078.461426,3936.410156,0.000000,4.000000,,,,0.000000,4.000000,4.000000,0.000000,4.000000,4.000000,4.000000,4.000000,4.000000,4.000000,1.000000,4.000000,4.000000,4.000000,2.000000,25.000000
1602278809.804379,21.000000,0.000000,3920.512939,4627.692383,4168.717773,4257.436035,3944.102539,4622.051270,3974.871826,3898.974365,4312.820313,4018.461426,4218.974121,4146.153809,4077.948730,3942.564209,0.000000,4.000000,,,,0.000000,4.000000,4.000000,0.000000,4.000000,4.000000,4.000000,4.000000,4.000000,4.000000,1.000000,4.000000,4.000000,4.000000,2.000000,25.000000
1602278809.812200,22.000000,0.000000,3918.461426,4631.794922,4167.179688,4259.487305,3946.153809,4616.922852,3973.846191,3890.769287,4307.179688,4019.487061,4220.000000,4149.230957,4072.820557,3946.666748,0.000000,4.000000,,,,0.000000,4.000000,4.000000,0.000000,4.000000,4.000000,4.000000,4.000000,4.000000,4.000000,1.000000,4.000000,4.000000,4.000000,2.000000,25.000000
1602278809.820121,23.000000,0.000000,3913.333252,4629.743652,4167.692383,4251.794922,3947.179443,4609.743652,3961.025635,3892.307617,4300.000000,4019.487061,4215.897461,4146.153809,4067.179443,3940.000000,0.000000,4.000000,,,,0.000000,4.000000,4.000000,0.000000,4.000000,4.000000,4.000000,4.000000,4.000000,4.000000,1.000000,4.000000,4.000000,4.000000,2.000000,25.000000
1602278809.827942,24.000000,0.000000,3913.333252,4627.179688,4169.743652,4259.487305,3946.153809,4616.922852,3965.128174,3897.948730,4305.128418,4018.974365,4218.461426,4146.666504,4074.358887,3936.923096,0.000000,4.000000,,,,0.000000,4.000000,4.000000,0.000000,4.000000,4.000000,4.000000,4.000000,4.000000,4.000000,1.000000,4.000000,4.000000,4.000000,2.000000,25.000000
1602278809.835863,25.000000,0.000000,3918.974365,4635.897461,4171.282227,4270.256348,3948.205078,4622.051270,3977.948730,3901.538574,4314.358887,4020.512939,4226.666504,4152.820313,4083.076904,3941.538574,0.000000,4.000000,,,,0.000000,4.000000,4.000000,0.000000,4.000000,4.000000,4.000000,4.000000,4.000000,4.000000,1.000000,4.000000,4.000000,4.000000,2.000000,25.000000
1602278809.843684,26.000000,0.000000,3921.025635,4635.384766,4170.256348,4262.563965,3951.281982,4615.897461,3972.307617,3900.000000,4308.205078,4021.025635,4228.717773,4151.794922,4085.128174,3942.564209,0.000000,4.000000,,,,0.000000,4.000000,4.000000,0.000000,4.000000,4.000000,4.000000,4.000000,4.000000,4.000000,1.000000,4.000000,4.000000,4.000000,2.000000,25.000000
1602278809.851605,27.000000,0.000000,3918.461426,4621.025879,4170.769043,4257.948730,3947.692383,4610.769043,3958.461426,3893.333252,4300.000000,4020.000000,4224.615234,4144.615234,4085.641113,3941.025635,0.000000,4.000000,,,,0.000000,4.000000,4.000000,0.000000,4.000000,4.000000,4.000000,4.000000,4.000000,4.000000,1.000000,4.000000,4.000000,4.000000,2.000000,25.000000
1602278809.859427,28.000000,0.000000,3920.000000,4618.974121,4167.179688,4267.692383,3947.179443,4617.948730,3967.692383,3898.461426,4313.846191,4019.487061,4225.128418,4145.128418,4087.179443,3941.025635,0.000000,4.000000,,,,0.000000,4.000000,4.000000,0.000000,4.000000,4.000000,4.000000,4.000000,4.000000,4.000000,1.000000,4.000000,4.000000,4.000000,2.000000,25.000000
1602278809.867148,29.000000,0.000000,3929.230713,4634.871582,4169.743652,4270.769043,3955.384521,4632.307617,3988.205078,3910.769287,4327.692383,4020.512939,4232.307617,4154.871582,4092.820557,3946.153809,0.000000,4.000000,,,,0.000000,4.000000,4.000000,0.000000,4.000000,4.000000,4.000000,4.000000,4.000000,4.000000,1.000000,4.000000,4.000000,4.000000,2.000000,25.000000
1602278809.874969,30.000000,0.000000,3934.871826,4642.051270,4170.769043,4271.282227,3963.076904,4639.487305,3991.794922,3911.281982,4323.077148,4023.589844,4237.436035,4160.512695,4101.025879,3952.820557,0.000000,4.000000,,,,0.000000,4.000000,4.000000,0.000000,4.000000,4.000000,4.000000,4.000000,4.000000,4.000000,1.000000,4.000000,4.000000,4.000000,2.000000,25.000000
1602278809.882690,31.000000,0.000000,3927.692383,4638.461426,4166.666504,4272.307617,3958.974365,4636.410156,3982.051270,3900.512939,4316.922852,4025.128174,4240.512695,4163.589844,4106.666504,3956.410156,0.000000,4.000000,,,,0.000000,4.000000,4.000000,0.000000,4.000000,4.000000,4.000000,4.000000,4.000000,4.000000,1.000000,4.000000,4.000000,4.000000,2.000000,25.000000
1602278809.890511,32.000000,0.000000,3917.435791,4640.000000,4165.128418,4267.179688,3947.179443,4632.307617,3975.384521,3893.333252,4313.846191,4020.512939,4235.384766,4159.487305,4105.641113,3949.230713,0.000000,4.000000,,,,0.000000,4.000000,4.000000,0.000000,4.000000,4.000000,4.000000,4.000000,4.000000,4.000000,1.000000,4.000000,4.000000,4.000000,2.000000,25.000000
1602278809.898232,33.000000,0.000000,3913.846191,4641.025879,4171.282227,4264.102539,3956.410156,4633.846191,3975.897461,3893.333252,4305.641113,4017.948730,4222.563965,4147.692383,4092.820557,3943.589844,0.000000,4.000000,,,,0.000000,4.000000,4.000000,0.000000,4.000000,4.000000,4.000000,4.000000,4.000000,4.000000,1.000000,4.000000,4.000000,4.000000,2.000000,25.000000
1602278809.906052,34.000000,0.000000,3918.461426,4635.384766,4170.769043,4265.128418,3973.333252,4633.333496,3980.512939,3896.410156,4307.692383,4020.512939,4218.974121,4145.641113,4077.435791,3945.641113,0.000000,4.000000,,,,0.000000,4.000000,4.000000,0.000000,4.000000,4.000000,4.000000,4.000000,4.000000,4.000000,1.000000,4.000000,4.000000,4.000000,2.000000,25.000000
1602278809.913773,35.000000,0.000000,3930.256348,4635.897461,4167.179688,4269.743652,3963.076904,4640.512695,3991.281982,3907.179443,4325.641113,4020.000000,4230.769043,4160.000000,4084.615479,3953.333252,0.000000,4.000000,,,,0.000000,4.000000,4.000000,0.000000,4.000000,4.000000,4.000000,4.000000,4.000000,4.000000,1.000000,4.000000,4.000000,4.000000,2.000000,25.000000
1602278809.921594,36.000000,0.000000,3943.076904,4641.538574,4170.769043,4277.948730,3950.769287,4650.769043,3997.435791,3913.846191,4335.384766,4024.102539,4241.538574,4172.307617,4104.102539,3960.512939,0.000000,4.000000,,,,0.000000,4.000000,4.000000,0.000000,4.000000,4.000000,4.000000,4.000000,4.000000,4.000000,1.000000,4.000000,4.000000,4.000000,2.000000,25.000000
1602278809.929315,37.000000,0.000000,3942.051270,4637.948730,4173.333496,4275.897461,3955.384521,4632.820313,3983.076904,3908.718018,4328.205078,4028.718018,4240.000000,4168.205078,4100.000000,3958.461426,0.000000,4.000000,,,,0.000000,4.000000,4.000000,0.000000,4.000000,4.000000,4.000000,4.000000,4.000000,4.000000,1.000000,4.000000,4.000000,4.000000,2.000000,25.000000
1602278809.937136,38.000000,0.000000,3929.230713,4631.282227,4169.230957,4264.102539,3951.794922,4611.282227,3970.769287,3907.179443,4322.563965,4023.589844,4233.846191,4160.512695,4092.307617,3953.333252,0.000000,4.000000,,,,0.000000,4.000000,4.000000,0.000000,4.000000,4.000000,4.000000,4.000000,4.000000,4.000000,1.000000,4.000000,4.000000,4.000000,2.000000,25.000000
1602278809.944857,39.000000,0.000000,3921.025635,4634.358887,4168.717773,4260.512695,3943.589844,4625.128418,3982.564209,3911.794922,4324.102539,4019.487061,4233.333496,4161.025879,4103.077148,3951.794922,0.000000,4.000000,,,,0.000000,4.000000,4.000000,0.000000,4.000000,4.000000,4.000000,4.000000,4.000000,4.000000,1.000000,4.000000,4.000000,4.000000,2.000000,25.000000
1602278809.952678,40.000000,0.000000,3921.538574,4636.410156,4168.717773,4263.589844,3949.230713,4642.563965,3991.794922,3909.230713,4324.615234,4021.025635,4232.307617,4160.512695,4098.461426,3950.256348,0.000000,4.000000,,,,0.000000,4.000000,4.000000,0.000000,4.000000,4.000000,4.000000,4.000000,4.000000,4.000000,1.000000,4.000000,4.000000,4.000000,2.000000,25.000000
1602278809.960398,41.000000,0.000000,3922.051270,4632.307617,4167.179688,4269.230957,3951.281982,4631.282227,3984.615479,3900.512939,4321.025879,4021.538574,4228.205078,4153.333496,4077.948730,3948.205078,0.000000,4.000000,,,,0.000000,4.000000,4.000000,0.000000,4.000000,4.000000,4.000000,4.000000,4.000000,4.000000,1.000000,4.000000,4.000000,4.000000,2.000000,25.000000
1602278809.968319,42.000000,0.000000,3919.487061,4629.230957,4170.256348,4272.820313,3948.718018,4623.589844,3977.948730,3896.410156,4315.897461,4021.538574,4229.743652,4149.230957,4076.410156,3948.718018,0.000000,4.000000,,,,0.000000,4.000000,4.000000,0.000000,4.000000,4.000000,4.000000,4.000000,4.000000,4.000000,1.000000,4.000000,4.000000,4.000000,2.000000,25.000000
1602278809.976141,43.000000,0.000000,3915.384521,4633.333496,4170.769043,4265.641113,3957.948730,4634.871582,3977.948730,3894.358887,4311.794922,4022.051270,4230.769043,4147.692383,4087.179443,3946.153809,0.000000,4.000000,,,,0.000000,4.000000,4.000000,0.000000,4.000000,4.000000,4.000000,4.000000,4.000000,4.000000,1.000000,4.000000,4.000000,4.000000,2.000000,25.000000
1602278809.984062,44.000000,0.000000,3916.923096,4642.563965,4170.256348,4266.153809,3963.076904,4637.436035,3972.307617,3892.307617,4312.307617,4020.000000,4224.102539,4147.692383,4089.230713,3945.641113,0.000000,4.000000,,,,0.000000,4.000000,4.000000,0.000000,4.000000,4.000000,4.000000,4.000000,4.000000,4.000000,1.000000,4.000000,4.000000,4.000000,2.000000,25.000000
1602278809.991883,45.000000,0.000000,3927.692383,4646.666504,4172.307617,4282.051270,3967.692383,4632.820313,3974.358887,3899.487061,4317.436035,4020.000000,4226.153809,4155.384766,4093.333252,3951.281982,0.000000,4.000000,,,,0.000000,4.000000,4.000000,0.000000,4.000000,4.000000,4.000000,4.000000,4.000000,4.000000,1.000000,4.000000,4.000000,4.000000,2.000000,25.000000
1602278809.999804,46.000000,0.000000,3938.461426,4648.717773,4173.846191,4286.666504,3978.461426,4634.358887,3987.692383,3910.769287,4324.102539,4021.538574,4235.384766,4165.641113,4095.384521,3956.923096,0.000000,4.000000,,,,0.000000,4.000000,4.000000,0.000000,4.000000,4.000000,4.000000,4.000000,4.000000,4.000000,1.000000,4.000000,4.000000,4.000000,2.000000,25.000000
1602278810.007625,47.000000,0.000000,3943.076904,4653.333496,4169.743652,4284.102539,3972.307617,4638.461426,3992.820557,3914.871826,4327.179688,4022.051270,4235.384766,4168.717773,4092.820557,3957.948730,0.000000,4.000000,,,,0.000000,4.000000,4.000000,0.000000,4.000000,4.000000,4.000000,4.000000,4.000000,4.000000,1.000000,4.000000,4.000000,4.000000,2.000000,25.000000
1602278810.015546,48.000000,0.000000,3943.076904,4645.641113,4170.769043,4285.128418,3954.871826,4634.358887,3982.051270,3907.179443,4323.589844,4022.051270,4233.846191,4165.641113,4093.846191,3956.923096,0.000000,4.000000,,,,0.000000,4.000000,4.000000,0.000000,4.000000,4.000000,4.000000,4.000000,4.000000,4.000000,1.000000,4.000000,4.000000,4.000000,2.000000,25.000000
1602278810.023367,49.000000,0.000000,3934.871826,4631.794922,4168.717773,4279.487305,3964.102539,4624.102539,3970.769287,3899.487061,4317.436035,4021.538574,4234.358887,4162.051270,4094.358887,3955.384521,0.000000,4.000000,,,,0.000000,4.000000,4.000000,0.000000,4.000000,4.000000,4.000000,4.000000,4.000000,4.000000,1.000000,4.000000,4.000000,4.000000,2.000000,25.000000
1602278810.031288,50.000000,0.000000,3926.153809,4633.333496,4164.615234,4276.410156,3974.871826,4620.000000,3971.281982,3894.871826,4314.358887,4020.000000,4228.205078,4157.436035,4088.205078,3953.846191,0.000000,4.000000,,,,0.000000,4.000000,4.000000,0.000000,4.000000,4.000000,4.000000,4.000000,4.000000,4.000000,1.000000,4.000000,4.000000,4.000000,2.000000,25.000000
1602278810.039109,51.000000,0.000000,3918.461426,4635.384766,4165.641113,4281.025879,3950.769287,4622.563965,3972.820557,3885.128174,4301.538574,4019.487061,4218.974121,4147.179688,4079.487061,3945.641113,0.000000,4.000000,,,,0.000000,4.000000,4.000000,0.000000,4.000000,4.000000,4.000000,4.000000,4.000000,4.000000,1.000000,4.000000,4.000000,4.000000,2.000000,25.000000
1602278810.047030,52.000000,0.000000,3906.153809,4622.563965,4165.641113,4273.333496,3937.948730,4617.436035,3964.102539,3870.769287,4286.153809,4018.974365,4207.692383,4131.794922,4070.256348,3936.923096,0.000000,4.000000,,,,0.000000,4.000000,4.000000,0.000000,4.000000,4.000000,4.000000,4.000000,4.000000,4.000000,1.000000,4.000000,4.000000,4.000000,2.000000,25.000000
1602278810.054850,53.000000,0.000000,3899.487061,4625.128418,4161.025879,4264.102539,3955.384521,4613.846191,3960.512939,3874.358887,4292.307617,4018.461426,4201.025879,4127.692383,4070.769287,3936.410156,0.000000,4.000000,,,,0.000000,4.000000,4.000000,0.000000,4.000000,4.000000,4.000000,4.000000,4.000000,4.000000,1.000000,4.000000,4.000000,4.000000,2.000000,25.000000
1602278810.062571,54.000000,0.000000,3907.692383,4639.487305,4163.589844,4268.717773,3970.256348,4629.743652,3968.205078,3891.794922,4311.282227,4019.487061,4211.794922,4137.948730,4077.435791,3941.538574,0.000000,4.000000,,,,0.000000,4.000000,4.000000,0.000000,4.000000,4.000000,4.000000,4.000000,4.000000,4.000000,1.000000,4.000000,4.000000,4.000000,2.000000,25.000000
1602278810.070392,55.000000,0.000000,3916.410156,4636.922852,4169.230957,4268.717773,3963.076904,4641.025879,3967.692383,3890.256348,4314.871582,4020.512939,4220.512695,4145.641113,4079.487061,3944.615479,0.000000,4.000000,,,,0.000000,4.000000,4.000000,0.000000,4.000000,4.000000,4.000000,4.000000,4.000000,4.000000,1.000000,4.000000,4.000000,4.000000,2.000000,25.000000
1602278810.078113,56.000000,0.000000,3918.461426,4635.384766,4168.717773,4261.538574,3955.384521,4631.282227,3963.589844,3878.974365,4307.179688,4018.974365,4213.846191,4148.205078,4080.512939,3947.179443,0.000000,4.000000,,,,0.000000,4.000000,4.000000,0.000000,4.000000,4.000000,4.000000,4.000000,4.000000,4.000000,1.000000,4.000000,4.000000,4.000000,2.000000,25.000000
1602278810.085934,57.000000,0.000000,3928.205078,4644.615234,4169.743652,4267.692383,3958.974365,4628.717773,3975.897461,3885.641113,4304.615234,4017.435791,4218.461426,4155.897461,4092.307617,3955.384521,0.000000,4.000000,,,,0.000000,4.000000,4.000000,0.000000,4.000000,4.000000,4.000000,4.000000,4.000000,4.000000,1.000000,4.000000,4.000000,4.000000,2.000000,25.000000
1602278810.093655,58.000000,0.000000,3937.435791,4642.563965,4173.846191,4280.000000,3962.564209,4635.897461,3986.666748,3901.025635,4309.230957,4018.974365,4235.384766,4165.128418,4101.538574,3961.025635,0.000000,4.000000,,,,0.000000,4.000000,4.000000,0.000000,4.000000,4.000000,4.000000,4.000000,4.000000,4.000000,1.000000,4.000000,4.000000,4.000000,2.000000,25.000000
1602278810.101576,59.000000,0.000000,3928.718018,4634.358887,4171.794922,4276.922852,3959.487061,4628.205078,3981.025635,3896.410156,4308.205078,4021.025635,4234.871582,4161.025879,4094.358887,3954.358887,0.000000,4.000000,,,,0.000000,4.000000,4.000000,0.000000,4.000000,4.000000,4.000000,4.000000,4.000000,4.000000,1.000000,4.000000,4.000000,4.000000,2.000000,25.000000
1602278810.109397,60.000000,0.000000,3915.897461,4630.256348,4166.153809,4260.512695,3955.897461,4611.794922,3967.692383,3880.512939,4294.871582,4020.000000,4226.666504,4148.205078,4084.615479,3944.102539,0.000000,4.000000,,,,0.000000,4.000000,4.000000,0.000000,4.000000,4.000000,4.000000,4.000000,4.000000,4.000000,1.000000,4.000000,4.000000,4.000000,2.000000,25.000000
1602278810.117219,61.000000,0.000000,3914.358887,4621.538574,4168.717773,4252.307617,3952.307617,4615.384766,3962.051270,3878.974365,4292.307617,4021.025635,4233.846191,4147.692383,4081.025635,3945.641113,0.000000,4.000000,,,,0.000000,4.000000,4.000000,0.000000,4.000000,4.000000,4.000000,4.000000,4.000000,4.000000,1.000000,4.000000,4.000000,4.000000,2.000000,25.000000
1602278810.124940,62.000000,0.000000,3914.358887,4613.846191,4170.256348,4253.846191,3944.102539,4629.743652,3969.230713,3883.076904,4302.051270,4022.564209,4236.410156,4149.230957,4076.410156,3943.589844,0.000000,4.000000,,,,0.000000,4.000000,4.000000,0.000000,4.000000,4.000000,4.000000,4.000000,4.000000,4.000000,1.000000,4.000000,4.000000,4.000000,2.000000,25.000000
1602278810.132861,63.000000,0.000000,3913.846191,4623.589844,4171.282227,4255.897461,3954.358887,4635.384766,3975.897461,3879.487061,4303.077148,4022.051270,4223.077148,4142.563965,4077.948730,3938.461426,0.000000,4.000000,,,,0.000000,4.000000,4.000000,0.000000,4.000000,4.000000,4.000000,4.000000,4.000000,4.000000,1.000000,4.000000,4.000000,4.000000,2.000000,25.000000
1602278810.140682,64.000000,0.000000,3914.358887,4643.589844,4170.256348,4262.051270,3974.358887,4634.871582,3975.384521,3876.923096,4300.000000,4022.564209,4221.538574,4142.051270,4087.692383,3942.051270,0.000000,4.000000,,,,0.000000,4.000000,4.000000,0.000000,4.000000,4.000000,4.000000,4.000000,4.000000,4.000000,1.000000,4.000000,4.000000,4.000000,2.000000,25.000000
1602278810.148504,65.000000,0.000000,3911.281982,4649.743652,4171.282227,4258.461426,3969.743652,4627.179688,3972.820557,3877.948730,4294.358887,4021.538574,4226.153809,4144.615234,4083.076904,3943.589844,426.000000,4.000000,,,,0.000000,4.000000,4.000000,0.000000,4.000000,4.000000,4.000000,4.000000,4.000000,4.000000,1.000000,4.000000,4.000000,4.000000,2.000000,25.000000
1602278810.156224,66.000000,0.000000,3911.281982,4646.153809,4170.256348,4247.692383,3954.871826,4613.333496,3961.025635,3873.333252,4283.077148,4015.897461,4216.922852,4135.897461,4068.718018,3936.923096,387.000000,4.000000,,,,0.000000,4.000000,4.000000,0.000000,4.000000,4.000000,4.000000,4.000000,4.000000,4.000000,1.000000,4.000000,4.000000,4.000000,2.000000,25.000000
1602278810.164145,67.000000,0.000000,3926.153809,4644.615234,4168.205078,4257.436035,3957.948730,4618.461426,3957.435791,3874.358887,4283.077148,4011.281982,4210.256348,4138.461426,4069.230713,3941.538574,444.000000,4.000000,,,,0.000000,4.000000,4.000000,0.000000,4.000000,4.000000,4.000000,4.000000,4.000000,4.000000,1.000000,4.000000,4.000000,4.000000,2.000000,25.000000
1602278810.171966,68.000000,0.000000,3936.923096,4638.461426,4167.692383,4271.794922,3964.102539,4637.436035,3977.948730,3883.589844,4291.282227,4011.794922,4215.384766,4154.358887,4072.307617,3951.281982,476.000000,4.000000,,,,0.000000,4.000000,4.000000,0.000000,4.000000,4.000000,4.000000,4.000000,4.000000,4.000000,1.000000,4.000000,4.000000,4.000000,2.000000,25.000000
1602278810.179887,69.000000,0.000000,3931.281982,4629.230957,4171.282227,4260.000000,3954.358887,4635.384766,3986.666748,3883.076904,4286.666504,4013.333252,4214.358887,4157.948730,4067.179443,3947.692383,415.000000,4.000000,,,,0.000000,4.000000,4.000000,0.000000,4.000000,4.000000,4.000000,4.000000,4.000000,4.000000,1.000000,4.000000,4.000000,4.000000,2.000000,25.000000
1602278810.187708,70.000000,0.000000,3925.641113,4631.282227,4172.307617,4246.153809,3946.666748,4630.769043,3980.512939,3884.102539,4286.153809,4016.410156,4215.897461,4150.769043,4071.281982,3942.564209,472.000000,4.000000,,,,0.000000,4.000000,4.000000,0.000000,4.000000,4.000000,4.000000,4.000000,4.000000,4.000000,1.000000,4.000000,4.000000,4.000000,2.000000,25.000000
1602278810.195629,71.000000,0.000000,3924.102539,4631.794922,4169.743652,4247.692383,3952.307617,4641.538574,3984.615479,3893.333252,4301.538574,4018.974365,4227.179688,4149.743652,4083.589844,3945.641113,393.000000,4.000000,,,,0.000000,4.000000,4.000000,0.000000,4.000000,4.000000,4.000000,4.000000,4.000000,4.000000,1.000000,4.000000,4.000000,4.000000,2.000000,25.000000
1602278810.203450,72.000000,0.000000,3919.487061,4622.051270,4169.743652,4247.179688,3958.974365,4637.436035,3984.102539,3902.564209,4309.743652,4019.487061,4235.384766,4152.307617,4090.769287,3951.281982,413.000000,4.000000,,,,0.000000,4.000000,4.000000,0.000000,4.000000,4.000000,4.000000,4.000000,4.000000,4.000000,1.000000,4.000000,4.000000,4.000000,2.000000,25.000000
1602278810.211371,73.000000,0.000000,3916.923096,4626.666504,4168.205078,4252.820313,3965.641113,4624.615234,3977.435791,3907.692383,4311.794922,4020.000000,4243.077148,4155.384766,4098.461426,3954.871826,57.000000,4.000000,,,,0.000000,4.000000,4.000000,0.000000,4.000000,4.000000,4.000000,4.000000,4.000000,4.000000,1.000000,4.000000,4.000000,4.000000,2.000000,25.000000
1602278810.219193,74.000000,0.000000,3924.615479,4645.128418,4167.179688,4261.538574,3974.358887,4631.794922,3983.076904,3910.256348,4316.922852,4027.692383,4250.256348,4158.461426,4107.692383,3956.410156,445.000000,4.000000,,,,0.000000,4.000000,4.000000,0.000000,4.000000,4.000000,4.000000,4.000000,4.000000,4.000000,1.000000,4.000000,4.000000,4.000000,2.000000,25.000000
1602278810.227114,75.000000,0.000000,3933.333252,4659.487305,4167.179688,4265.128418,3974.871826,4646.666504,3991.281982,3910.769287,4321.538574,4034.358887,4250.256348,4160.000000,4112.820313,3955.897461,231.000000,4.000000,,,,0.000000,4.000000,4.000000,0.000000,4.000000,4.000000,4.000000,4.000000,4.000000,4.000000,1.000000,4.000000,4.000000,4.000000,2.000000,25.000000
1602278810.234935,76.000000,0.000000,3936.410156,4658.461426,4167.179688,4266.666504,3963.589844,4643.589844,3986.666748,3906.666748,4324.102539,4028.205078,4248.205078,4162.051270,4112.307617,3956.923096,425.000000,4.000000,,,,0.000000,4.000000,4.000000,0.000000,4.000000,4.000000,4.000000,4.000000,4.000000,4.000000,1.000000,4.000000,4.000000,4.000000,2.000000,25.000000
1602278810.242656,77.000000,0.000000,3935.897461,4650.256348,4168.205078,4266.666504,3962.564209,4628.717773,3974.358887,3896.923096,4324.102539,4024.102539,4247.692383,4160.000000,4110.256348,3957.435791,356.000000,4.000000,,,,0.000000,4.000000,4.000000,0.000000,4.000000,4.000000,4.000000,4.000000,4.000000,4.000000,1.000000,4.000000,4.000000,4.000000,2.000000,25.000000
1602278810.250476,78.000000,0.000000,3940.000000,4651.282227,4170.256348,4265.641113,3974.358887,4631.282227,3969.743652,3893.333252,4322.051270,4027.179443,4244.102539,4161.538574,4109.743652,3960.000000,445.000000,4.000000,,,,0.000000,4.000000,4.000000,0.000000,4.000000,4.000000,4.000000,4.000000,4.000000,4.000000,1.000000,4.000000,4.000000,4.000000,2.000000,25.000000
1602278810.258197,79.000000,0.000000,3938.974365,4652.307617,4167.692383,4266.153809,3977.435791,4644.615234,3981.538574,3903.589844,4320.512695,4024.615479,4236.922852,4165.641113,4103.077148,3961.025635,231.000000,4.000000,,,,0.000000,4.000000,4.000000,0.000000,4.000000,4.000000,4.000000,4.000000,4.000000,4.000000,1.000000,4.000000,4.000000,4.000000,2.000000,25.000000
1602278810.266018,80.000000,0.000000,3929.230713,4640.000000,4167.692383,4268.717773,3966.666748,4644.102539,3992.820557,3905.128174,4310.769043,4017.948730,4224.102539,4158.461426,4086.153809,3957.435791,425.000000,4.000000,,,,0.000000,4.000000,4.000000,0.000000,4.000000,4.000000,4.000000,4.000000,4.000000,4.000000,1.000000,4.000000,4.000000,4.000000,2.000000,25.000000
1602278810.273739,81.000000,0.000000,3923.076904,4627.179688,4169.743652,4264.102539,3956.923096,4636.922852,3993.846191,3900.000000,4302.563965,4017.948730,4213.846191,4147.692383,4075.897461,3951.794922,356.000000,4.000000,,,,0.000000,4.000000,4.000000,0.000000,4.000000,4.000000,4.000000,4.000000,4.000000,4.000000,1.000000,4.000000,4.000000,4.000000,2.000000,25.000000
1602278810.281560,82.000000,0.000000,3914.871826,4623.077148,4171.282227,4245.641113,3954.358887,4634.358887,3992.307617,3899.487061,4302.051270,4015.897461,4212.820313,4144.102539,4076.410156,3949.743652,445.000000,4.000000,,,,0.000000,4.000000,4.000000,0.000000,4.000000,4.000000,4.000000,4.000000,4.000000,4.000000,1.000000,4.000000,4.000000,4.000000,2.000000,25.000000
1602278810.289281,83.000000,0.000000,3907.692383,4617.436035,4170.769043,4233.333496,3958.461426,4631.282227,3989.743652,3890.769287,4295.384766,4013.333252,4213.846191,4143.077148,4075.897461,3947.179443,231.000000,4.000000,,,,0.000000,4.000000,4.000000,0.000000,4.000000,4.000000,4.000000,4.000000,4.000000,4.000000,1.000000,4.000000,4.000000,4.000000,2.000000,25.000000
1602278810.297102,84.000000,0.000000,3912.307617,4614.871582,4170.256348,4243.589844,3962.564209,4625.641113,3982.051270,3880.000000,4287.692383,4017.948730,4212.820313,4138.974121,4076.923096,3944.102539,425.000000,4.000000,,,,0.000000,4.000000,4.000000,0.000000,4.000000,4.000000,4.000000,4.000000,4.000000,4.000000,1.000000,4.000000,4.000000,4.000000,2.000000,25.000000
1602278810.304823,85.000000,0.000000,3920.000000,4623.077148,4167.692383,4257.436035,3957.948730,4616.410156,3972.820557,3880.000000,4290.256348,4018.461426,4214.358887,4136.410156,4079.487061,3945.641113,356.000000,4.000000,,,,0.000000,4.000000,4.000000,0.000000,4.000000,4.000000,4.000000,4.000000,4.000000,4.000000,1.000000,4.000000,4.000000,4.000000,2.000000,25.000000
1602278810.312644,86.000000,0.000000,3922.051270,4639.487305,4168.205078,4263.077148,3961.025635,4616.922852,3968.205078,3890.769287,4303.077148,4018.974365,4224.615234,4143.589844,4083.076904,3951.794922,445.000000,4.000000,,,,0.000000,4.000000,4.000000,0.000000,4.000000,4.000000,4.000000,4.000000,4.000000,4.000000,1.000000,4.000000,4.000000,4.000000,2.000000,25.000000
1602278810.320365,87.000000,0.000000,3926.153809,4654.358887,4170.769043,4270.769043,3971.794922,4625.641113,3970.256348,3904.102539,4312.820313,4027.692383,4239.487305,4156.922852,4098.974121,3959.487061,231.000000,4.000000,,,,0.000000,4.000000,4.000000,0.000000,4.000000,4.000000,4.000000,4.000000,4.000000,4.000000,1.000000,4.000000,4.000000,4.000000,2.000000,25.000000
1602278810.328185,88.000000,0.000000,3932.820557,4656.410156,4170.769043,4273.333496,3974.358887,4633.846191,3975.897461,3913.333252,4317.948730,4032.820557,4253.333496,4163.589844,4120.512695,3964.615479,425.000000,4.000000,,,,0.000000,4.000000,4.000000,0.000000,4.000000,4.000000,4.000000,4.000000,4.000000,4.000000,1.000000,4.000000,4.000000,4.000000,2.000000,25.000000
1602278810.335906,89.000000,0.000000,3933.333252,4651.282227,4169.743652,4268.717773,3975.897461,4634.871582,3974.358887,3910.256348,4317.436035,4026.666748,4251.282227,4163.589844,4122.051270,3964.615479,356.000000,4.000000,,,,0.000000,4.000000,4.000000,0.000000,4.000000,4.000000,4.000000,4.000000,4.000000,4.000000,1.000000,4.000000,4.000000,4.000000,2.000000,25.000000
1602278810.343827,90.000000,0.000000,3925.641113,4647.179688,4169.743652,4265.641113,3975.384521,4622.051270,3963.076904,3900.512939,4308.205078,4023.076904,4238.461426,4161.538574,4106.666504,3960.000000,445.000000,4.000000,,,,0.000000,4.000000,4.000000,0.000000,4.000000,4.000000,4.000000,4.000000,4.000000,4.000000,1.000000,4.000000,4.000000,4.000000,2.000000,25.000000
1602278810.351648,91.000000,0.000000,3917.948730,4643.589844,4169.743652,4260.512695,3963.076904,4616.410156,3968.205078,3898.974365,4299.487305,4023.589844,4231.282227,4155.384766,4090.769287,3953.846191,231.000000,4.000000,,,,0.000000,4.000000,4.000000,0.000000,4.000000,4.000000,4.000000,4.000000,4.000000,4.000000,1.000000,4.000000,4.000000,4.000000,2.000000,25.000000
1602278810.359569,92.000000,0.000000,3916.923096,4633.846191,4167.179688,4260.000000,3957.435791,4632.820313,3988.718018,3901.025635,4297.436035,4020.000000,4223.077148,4146.666504,4078.974365,3947.692383,425.000000,4.000000,,,,0.000000,4.000000,4.000000,0.000000,4.000000,4.000000,4.000000,4.000000,4.000000,4.000000,1.000000,4.000000,4.000000,4.000000,2.000000,25.000000
1602278810.367390,93.000000,0.000000,3915.384521,4616.922852,4168.717773,4259.487305,3969.230713,4639.487305,3988.718018,3895.384521,4289.743652,4016.410156,4213.333496,4143.589844,4075.897461,3948.205078,356.000000,4.000000,,,,0.000000,4.000000,4.000000,0.000000,4.000000,4.000000,4.000000,4.000000,4.000000,4.000000,1.000000,4.000000,4.000000,4.000000,2.000000,25.000000
1602278810.375311,94.000000,0.000000,3912.820557,4616.410156,4169.743652,4250.256348,3971.281982,4632.307617,3982.051270,3895.897461,4289.743652,4016.923096,4214.871582,4146.153809,4080.000000,3949.230713,445.000000,4.000000,,,,0.000000,4.000000,4.000000,0.000000,4.000000,4.000000,4.000000,4.000000,4.000000,4.000000,1.000000,4.000000,4.000000,4.000000,2.000000,25.000000
1602278810.383132,95.000000,0.000000,3911.281982,4632.307617,4169.743652,4242.563965,3959.487061,4629.230957,3988.205078,3905.641113,4307.692383,4018.974365,4220.000000,4148.205078,4085.641113,3947.692383,231.000000,4.000000,,,,0.000000,4.000000,4.000000,0.000000,4.000000,4.000000,4.000000,4.000000,4.000000,4.000000,1.000000,4.000000,4.000000,4.000000,2.000000,25.000000
1602278810.391053,96.000000,0.000000,3904.615479,4635.384766,4169.230957,4244.615234,3954.871826,4607.692383,3970.256348,3898.461426,4303.589844,4017.948730,4216.922852,4143.589844,4084.102539,3944.102539,425.000000,4.000000,,,,0.000000,4.000000,4.000000,0.000000,4.000000,4.000000,4.000000,4.000000,4.000000,4.000000,1.000000,4.000000,4.000000,4.000000,2.000000,25.000000
1602278810.398874,97.000000,0.000000,3910.769287,4630.256348,4170.769043,4253.333496,3958.461426,4598.461426,3956.410156,3891.281982,4289.743652,4020.000000,4225.641113,4147.179688,4086.666748,3950.769287,356.000000,4.000000,,,,0.000000,4.000000,4.000000,0.000000,4.000000,4.000000,4.000000,4.000000,4.000000,4.000000,1.000000,4.000000,4.000000,4.000000,2.000000,25.000000
1602278810.406795,98.000000,0.000000,3927.179443,4636.922852,4167.179688,4262.051270,3968.718018,4624.615234,3981.538574,3906.153809,4310.769043,4025.128174,4243.589844,4161.025879,4098.974121,3960.000000,445.000000,4.000000,,,,0.000000,4.000000,4.000000,0.000000,4.000000,4.000000,4.000000,4.000000,4.000000,4.000000,1.000000,4.000000,4.000000,4.000000,2.000000,25.000000
1602278810.414616,99.000000,0.000000,3926.153809,4640.000000,4166.666504,4263.589844,3973.846191,4628.205078,3981.538574,3914.871826,4328.205078,4024.615479,4240.000000,4162.563965,4098.974121,3959.487061,231.000000,4.000000,,,,0.000000,4.000000,4.000000,0.000000,4.000000,4.000000,4.000000,4.000000,4.000000,4.000000,1.000000,4.000000,4.000000,4.000000,2.000000,25.000000
1602278810.422337,100.000000,0.000000,3922.051270,4632.307617,4171.282227,4261.025879,3964.615479,4618.974121,3962.564209,3907.692383,4317.948730,4019.487061,4231.794922,4154.871582,4095.897461,3957.948730,425.000000,4.000000,,,,0.000000,4.000000,4.000000,0.000000,4.000000,4.000000,4.000000,4.000000,4.000000,4.000000,1.000000,4.000000,4.000000,4.000000,2.000000,25.000000
1602278810.430158,101.000000,0.000000,3924.615479,4622.563965,4172.820313,4256.410156,3952.820557,4629.230957,3981.025635,3904.615479,4310.769043,4018.974365,4230.769043,4153.333496,4100.000000,3958.974365,356.000000,4.000000,,,,0.000000,4.000000,4.000000,0.000000,4.000000,4.000000,4.000000,4.000000,4.000000,4.000000,1.000000,4.000000,4.000000,4.000000,2.000000,25.000000
1602278810.437879,102.000000,0.000000,3921.538574,4620.512695,4168.717773,4247.179688,3955.897461,4640.512695,4003.589844,3907.179443,4313.333496,4020.000000,4227.179688,4153.846191,4093.846191,3958.974365,445.000000,4.000000,,,,0.000000,4.000000,4.000000,0.000000,4.000000,4.000000,4.000000,4.000000,4.000000,4.000000,1.000000,4.000000,4.000000,4.000000,2.000000,25.000000
1602278810.445700,103.000000,0.000000,3921.025635,4633.846191,4168.717773,4243.077148,3967.179443,4645.641113,3998.974365,3912.307617,4313.333496,4018.974365,4227.692383,4158.461426,4084.615479,3958.461426,231.000000,4.000000,,,,0.000000,4.000000,4.000000,0.000000,4.000000,4.000000,4.000000,4.000000,4.000000,4.000000,1.000000,4.000000,4.000000,4.000000,2.000000,25.000000
1602278810.453421,104.000000,0.000000,3925.641113,4641.025879,4169.743652,4253.333496,3970.769287,4652.307617,3995.897461,3912.307617,4310.256348,4020.000000,4233.846191,4162.051270,4091.281982,3958.461426,425.000000,4.000000,,,,0.000000,4.000000,4.000000,0.000000,4.000000,4.000000,4.000000,4.000000,4.000000,4.000000,1.000000,4.000000,4.000000,4.000000,2.000000,25.000000
1602278810.461242,105.000000,0.000000,3920.000000,4632.820313,4166.666504,4260.512695,3974.358887,4646.153809,3995.897461,3910.769287,4310.256348,4021.025635,4230.256348,4156.922852,4098.461426,3954.871826,356.000000,4.000000,,,,0.000000,4.000000,4.000000,0.000000,4.000000,4.000000,4.000000,4.000000,4.000000,4.000000,1.000000,4.000000,4.000000,4.000000,2.000000,25.000000
1602278810.468963,106.000000,0.000000,3912.820557,4630.256348,4167.179688,4253.846191,3981.538574,4635.897461,3986.153809,3914.871826,4316.410156,4019.487061,4227.692383,4153.846191,4093.333252,3954.871826,445.000000,4.000000,,,,0.000000,4.000000,4.000000,0.000000,4.000000,4.000000,4.000000,4.000000,4.000000,4.000000,1.000000,4.000000,4.000000,4.000000,2.000000,25.000000
1602278810.476784,107.000000,0.000000,3912.307617,4631.794922,4169.743652,4249.230957,3977.948730,4628.717773,3974.871826,3910.769287,4310.769043,4021.025635,4229.743652,4153.333496,4088.205078,3955.384521,231.000000,4.000000,,,,0.000000,4.000000,4.000000,0.000000,4.000000,4.000000,4.000000,4.000000,4.000000,4.000000,1.000000,4.000000,4.000000,4.000000,2.000000,25.000000
1602278810.484505,108.000000,0.000000,3910.769287,4628.717773,4168.717773,4250.769043,3965.641113,4621.025879,3967.692383,3895.897461,4297.948730,4022.564209,4223.589844,4146.666504,4082.564209,3952.307617,425.000000,4.000000,,,,0.000000,4.000000,4.000000,0.000000,4.000000,4.000000,4.000000,4.000000,4.000000,4.000000,1.000000,4.000000,4.000000,4.000000,2.000000,25.000000
1602278810.492325,109.000000,0.000000,3908.718018,4628.717773,4164.102539,4246.153809,3963.589844,4614.358887,3960.512939,3891.281982,4301.538574,4018.974365,4221.025879,4142.051270,4082.051270,3951.281982,356.000000,4.000000,,,,0.000000,4.000000,4.000000,0.000000,4.000000,4.000000,4.000000,4.000000,4.000000,4.000000,1.000000,4.000000,4.000000,4.000000,2.000000,25.000000
1602278810.500046,110.000000,0.000000,3910.769287,4631.282227,4168.717773,4249.743652,3975.897461,4604.615234,3952.307617,3892.820557,4303.077148,4017.435791,4228.717773,4149.230957,4088.718018,3953.846191,445.000000,4.000000,,,,0.000000,4.000000,4.000000,0.000000,4.000000,4.000000,4.000000,4.000000,4.000000,4.000000,1.000000,4.000000,4.000000,4.000000,2.000000,25.000000
1602278810.507867,111.000000,0.000000,3915.897461,4636.410156,4172.307617,4265.641113,3983.076904,4614.358887,3962.564209,3898.974365,4301.025879,4023.076904,4232.307617,4157.948730,4094.358887,3954.358887,231.000000,4.000000,,,,0.000000,4.000000,4.000000,0.000000,4.000000,4.000000,4.000000,4.000000,4.000000,4.000000,1.000000,4.000000,4.000000,4.000000,2.000000,25.000000
1602278810.515588,112.000000,0.000000,3920.000000,4641.025879,4169.230957,4261.538574,3975.897461,4632.307617,3982.564209,3910.769287,4313.333496,4024.615479,4231.282227,4159.487305,4094.871826,3955.897461,425.000000,4.000000,,,,0.000000,4.000000,4.000000,0.000000,4.000000,4.000000,4.000000,4.000000,4.000000,4.000000,1.000000,4.000000,4.000000,4.000000,2.000000,25.000000
1602278810.523509,113.000000,0.000000,3916.410156,4637.948730,4166.666504,4248.717773,3966.666748,4621.538574,3977.948730,3911.281982,4314.871582,4020.512939,4231.794922,4156.410156,4090.769287,3956.923096,356.000000,4.000000,,,,0.000000,4.000000,4.000000,0.000000,4.000000,4.000000,4.000000,4.000000,4.000000,4.000000,1.000000,4.000000,4.000000,4.000000,2.000000,25.000000
1602278810.531330,114.000000,0.000000,3914.871826,4635.384766,4171.282227,4257.436035,3960.512939,4609.743652,3967.179443,3904.102539,4302.051270,4018.974365,4233.846191,4156.922852,4093.846191,3958.974365,445.000000,4.000000,,,,0.000000,4.000000,4.000000,0.000000,4.000000,4.000000,4.000000,4.000000,4.000000,4.000000,1.000000,4.000000,4.000000,4.000000,2.000000,25.000000
1602278810.539251,115.000000,0.000000,3918.974365,4636.410156,4170.256348,4263.589844,3962.051270,4616.410156,3969.743652,3905.641113,4302.563965,4020.000000,4234.358887,4156.410156,4104.615234,3958.974365,231.000000,4.000000,,,,0.000000,4.000000,4.000000,0.000000,4.000000,4.000000,4.000000,4.000000,4.000000,4.000000,1.000000,4.000000,4.000000,4.000000,2.000000,25.000000
1602278810.547072,116.000000,0.000000,3918.461426,4629.230957,4164.615234,4252.820313,3966.153809,4617.436035,3972.307617,3902.051270,4305.128418,4019.487061,4232.820313,4150.256348,4098.461426,3957.435791,425.000000,4.000000,,,,0.000000,4.000000,4.000000,0.000000,4.000000,4.000000,4.000000,4.000000,4.000000,4.000000,1.000000,4.000000,4.000000,4.000000,2.000000,25.000000
1602278810.554993,117.000000,0.000000,3918.461426,4625.641113,4163.589844,4252.307617,3969.230713,4619.487305,3975.897461,3897.435791,4302.051270,4020.000000,4230.769043,4151.794922,4088.718018,3959.487061,356.000000,4.000000,,,,0.000000,4.000000,4.000000,0.000000,4.000000,4.000000,4.000000,4.000000,4.000000,4.000000,1.000000,4.000000,4.000000,4.000000,2.000000,25.000000
1602278810.562814,118.000000,0.000000,3922.051270,4635.384766,4168.205078,4254.358887,3965.641113,4629.743652,3978.974365,3904.102539,4310.769043,4019.487061,4233.846191,4160.000000,4093.846191,3964.102539,445.000000,4.000000,,,,0.000000,4.000000,4.000000,0.000000,4.000000,4.000000,4.000000,4.000000,4.000000,4.000000,1.000000,4.000000,4.000000,4.000000,2.000000,25.000000
1602278810.570735,119.000000,0.000000,3925.128174,4637.948730,4172.307617,4256.410156,3965.128174,4632.307617,3983.076904,3914.358887,4326.153809,4023.076904,4237.436035,4162.051270,4102.563965,3963.076904,231.000000,4.000000,,,,0.000000,4.000000,4.000000,0.000000,4.000000,4.000000,4.000000,4.000000,4.000000,4.000000,1.000000,4.000000,4.000000,4.000000,2.000000,25.000000
1602278810.578556,120.000000,0.000000,3926.153809,4629.743652,4173.333496,4270.769043,3983.076904,4634.358887,3992.820557,3918.461426,4331.794922,4030.256348,4238.974121,4163.077148,4107.179688,3960.512939,425.000000,4.000000,,,,0.000000,4.000000,4.000000,0.000000,4.000000,4.000000,4.000000,4.000000,4.000000,4.000000,1.000000,4.000000,4.000000,4.000000,2.000000,25.000000
1602278810.586477,121.000000,0.000000,3928.205078,4633.846191,4169.743652,4275.384766,3985.641113,4631.794922,3985.641113,3914.358887,4322.051270,4025.641113,4242.563965,4165.641113,4111.794922,3961.025635,356.000000,4.000000,,,,0.000000,4.000000,4.000000,0.000000,4.000000,4.000000,4.000000,4.000000,4.000000,4.000000,1.000000,4.000000,4.000000,4.000000,2.000000,25.000000
1602278810.594298,122.000000,0.000000,3928.718018,4649.230957,4168.205078,4267.692383,3968.205078,4621.025879,3968.205078,3904.102539,4310.256348,4019.487061,4244.615234,4162.563965,4112.307617,3960.512939,445.000000,4.000000,,,,0.000000,4.000000,4.000000,0.000000,4.000000,4.000000,4.000000,4.000000,4.000000,4.000000,1.000000,4.000000,4.000000,4.000000,2.000000,25.000000
1602278810.602219,123.000000,0.000000,3924.102539,4650.256348,4170.256348,4266.153809,3972.820557,4620.000000,3973.846191,3899.487061,4309.230957,4021.025635,4238.461426,4156.410156,4105.641113,3959.487061,231.000000,4.000000,,,,0.000000,4.000000,4.000000,0.000000,4.000000,4.000000,4.000000,4.000000,4.000000,4.000000,1.000000,4.000000,4.000000,4.000000,2.000000,25.000000
1602278810.610040,124.000000,0.000000,3918.974365,4638.974121,4169.743652,4267.179688,3987.179443,4614.358887,3970.769287,3896.923096,4300.512695,4019.487061,4226.666504,4149.743652,4092.820557,3955.897461,425.000000,4.000000,,,,0.000000,4.000000,4.000000,0.000000,4.000000,4.000000,4.000000,4.000000,4.000000,4.000000,1.000000,4.000000,4.000000,4.000000,2.000000,25.000000
1602278810.617761,125.000000,0.000000,3922.564209,4633.333496,4170.256348,4260.000000,3981.538574,4608.205078,3951.794922,3889.230713,4287.179688,4016.410156,4218.461426,4145.128418,4078.974365,3954.871826,356.000000,4.000000,,,,0.000000,4.000000,4.000000,0.000000,4.000000,4.000000,4.000000,4.000000,4.000000,4.000000,1.000000,4.000000,4.000000,4.000000,2.000000,25.000000
1602278810.625582,126.000000,0.000000,3929.743652,4635.897461,4172.307617,4261.025879,3975.384521,4628.717773,3970.769287,3896.923096,4297.948730,4018.974365,4215.897461,4148.717773,4082.051270,3957.948730,445.000000,4.000000,,,,0.000000,4.000000,4.000000,0.000000,4.000000,4.000000,4.000000,4.000000,4.000000,4.000000,1.000000,4.000000,4.000000,4.000000,2.000000,25.000000
1602278810.633302,127.000000,0.000000,3922.051270,4641.025879,4172.307617,4269.230957,3977.435791,4648.717773,4003.589844,3911.794922,4316.410156,4015.897461,4216.922852,4151.282227,4085.641113,3956.923096,231.000000,4.000000,,,,0.000000,4.000000,4.000000,0.000000,4.000000,4.000000,4.000000,4.000000,4.000000,4.000000,1.000000,4.000000,4.000000,4.000000,2.000000,25.000000
1602278810.641123,128.000000,0.000000,3910.256348,4629.743652,4167.179688,4260.512695,3965.128174,4636.922852,3995.384521,3909.743652,4313.846191,4012.820557,4217.948730,4145.128418,4075.384521,3949.230713,425.000000,4.000000,,,,0.000000,4.000000,4.000000,0.000000,4.000000,4.000000,4.000000,4.000000,4.000000,4.000000,1.000000,4.000000,4.000000,4.000000,2.000000,25.000000
1602278810.648844,0.000000,0.000000,3914.871826,4616.410156,4170.769043,4252.307617,3958.461426,4617.436035,3975.384521,3904.102539,4311.282227,4018.974365,4222.563965,4147.179688,4081.538574,3952.820557,0.000000,4.000000,,,,0.000000,4.000000,4.000000,0.000000,4.000000,4.000000,4.000000,4.000000,4.000000,4.000000,1.000000,4.000000,4.000000,4.000000,2.000000,25.000000
1602278810.656665,1.000000,0.000000,3917.948730,4628.205078,4169.743652,4258.461426,3967.179443,4605.641113,3972.307617,3896.410156,4310.256348,4021.538574,4225.128418,4152.307617,4093.846191,3957.435791,426.000000,4.000000,,,,0.000000,4.000000,4.000000,0.000000,4.000000,4.000000,4.000000,4.000000,4.000000,4.000000,1.000000,4.000000,4.000000,4.000000,2.000000,25.000000
1602278810.664386,2.000000,0.000000,3913.333252,4639.487305,4165.128418,4264.102539,3968.205078,4604.615234,3970.256348,3886.666748,4302.051270,4018.461426,4219.487305,4149.230957,4089.230713,3953.333252,387.000000,4.000000,,,,0.000000,4.000000,4.000000,0.000000,4.000000,4.000000,4.000000,4.000000,4.000000,4.000000,1.000000,4.000000,4.000000,4.000000,2.000000,25.000000
1602278810.672207,3.000000,0.000000,3924.102539,4636.410156,4167.692383,4269.743652,3966.666748,4622.563965,3972.820557,3898.461426,4305.128418,4019.487061,4223.077148,4154.871582,4091.281982,3956.410156,444.000000,4.000000,,,,0.000000,4.000000,4.000000,0.000000,4.000000,4.000000,4.000000,4.000000,4.000000,4.000000,1.000000,4.000000,4.000000,4.000000,2.000000,25.000000
1602278810.679928,4.000000,0.000000,3936.923096,4634.871582,4170.769043,4275.897461,3968.718018,4634.358887,3977.435791,3910.769287,4317.948730,4023.076904,4235.897461,4166.666504,4101.538574,3965.128174,476.000000,4.000000,,,,0.000000,4.000000,4.000000,0.000000,4.000000,4.000000,4.000000,4.000000,4.000000,4.000000,1.000000,4.000000,4.000000,4.000000,2.000000,25.000000
1602278810.687749,5.000000,0.000000,3928.205078,4636.410156,4169.743652,4267.179688,3972.820557,4623.077148,3972.820557,3897.948730,4316.922852,4022.564209,4233.333496,4159.487305,4094.358887,3961.538574,415.000000,4.000000,,,,0.000000,4.000000,4.000000,0.000000,4.000000,4.000000,4.000000,4.000000,4.000000,4.000000,1.000000,4.000000,4.000000,4.000000,2.000000,25.000000
1602278810.695469,6.000000,0.000000,3919.487061,4639.487305,4172.307617,4258.461426,3980.000000,4617.436035,3974.358887,3890.769287,4304.615234,4019.487061,4225.128418,4148.205078,4088.718018,3954.871826,472.000000,4.000000,,,,0.000000,4.000000,4.000000,0.000000,4.000000,4.000000,4.000000,4.000000,4.000000,4.000000,1.000000,4.000000,4.000000,4.000000,2.000000,25.000000
1602278810.703390,7.000000,0.000000,3921.025635,4640.000000,4171.282227,4267.692383,3981.538574,4625.128418,3977.948730,3896.410156,4299.487305,4018.974365,4224.102539,4148.717773,4096.922852,3954.871826,393.000000,4.000000,,,,0.000000,4.000000,4.000000,0.000000,4.000000,4.000000,4.000000,4.000000,4.000000,4.000000,1.000000,4.000000,4.000000,4.000000,2.000000,25.000000
1602278810.711211,8.000000,0.000000,3919.487061,4628.205078,4166.666504,4269.743652,3968.718018,4620.512695,3973.333252,3894.871826,4300.512695,4018.974365,4220.000000,4143.077148,4085.641113,3951.794922,413.000000,4.000000,,,,0.000000,4.000000,4.000000,0.000000,4.000000,4.000000,4.000000,4.000000,4.000000,4.000000,1.000000,4.000000,4.000000,4.000000,2.000000,25.000000
1602278810.719132,9.000000,0.000000,3918.461426,4626.666504,4169.230957,4260.512695,3961.025635,4611.282227,3966.666748,3894.871826,4303.589844,4018.461426,4213.846191,4139.487305,4071.794922,3951.794922,57.000000,4.000000,,,,0.000000,4.000000,4.000000,0.000000,4.000000,4.000000,4.000000,4.000000,4.000000,4.000000,1.000000,4.000000,4.000000,4.000000,2.000000,25.000000
1602278810.726954,10.000000,0.000000,3919.487061,4637.436035,4169.230957,4263.077148,3972.307617,4606.153809,3958.461426,3897.435791,4302.051270,4018.461426,4215.384766,4147.179688,4077.948730,3954.871826,445.000000,4.000000,,,,0.000000,4.000000,4.000000,0.000000,4.000000,4.000000,4.000000,4.000000,4.000000,4.000000,1.000000,4.000000,4.000000,4.000000,2.000000,25.000000
1602278810.734875,11.000000,0.000000,3914.871826,4627.692383,4166.153809,4267.179688,3976.410156,4602.051270,3953.846191,3891.794922,4298.974121,4018.974365,4215.384766,4145.641113,4083.076904,3951.794922,230.000000,4.000000,,,,0.000000,4.000000,4.000000,0.000000,4.000000,4.000000,4.000000,4.000000,4.000000,4.000000,1.000000,4.000000,4.000000,4.000000,2.000000,25.000000
1602278810.742696,12.000000,0.000000,3913.846191,4620.512695,4167.692383,4263.589844,3976.410156,4620.000000,3975.384521,3899.487061,4315.384766,4018.974365,4222.051270,4143.589844,4085.128174,3951.281982,425.000000,4.000000,,,,0.000000,4.000000,4.000000,0.000000,4.000000,4.000000,4.000000,4.000000,4.000000,4.000000,1.000000,4.000000,4.000000,4.000000,2.000000,25.000000
1602278810.750617,13.000000,0.000000,3913.333252,4633.333496,4169.230957,4263.077148,3980.512939,4645.128418,3993.333252,3918.974365,4337.948730,4021.025635,4235.384766,4153.333496,4088.718018,3957.435791,356.000000,4.000000,,,,0.000000,4.000000,4.000000,0.000000,4.000000,4.000000,4.000000,4.000000,4.000000,4.000000,1.000000,4.000000,4.000000,4.000000,2.000000,25.000000
1602278810.758438,14.000000,0.000000,3907.179443,4633.846191,4166.153809,4260.512695,3981.538574,4639.487305,3984.102539,3922.051270,4335.897461,4027.692383,4231.282227,4151.282227,4089.743652,3954.871826,445.000000,4.000000,,,,0.000000,4.000000,4.000000,0.000000,4.000000,4.000000,4.000000,4.000000,4.000000,4.000000,1.000000,4.000000,4.000000,4.000000,2.000000,25.000000
1602278810.766359,15.000000,0.000000,3910.256348,4626.153809,4169.230957,4259.487305,3987.692383,4626.666504,3984.102539,3917.435791,4329.743652,4030.256348,4227.692383,4145.128418,4098.461426,3952.307617,230.000000,4.000000,,,,0.000000,4.000000,4.000000,0.000000,4.000000,4.000000,4.000000,4.000000,4.000000,4.000000,1.000000,4.000000,4.000000,4.000000,2.000000,25.000000
1602278810.774180,16.000000,0.000000,3918.461426,4631.282227,4170.769043,4270.769043,3991.281982,4633.846191,3995.897461,3918.461426,4335.897461,4027.692383,4242.563965,4153.333496,4111.282227,3958.974365,0.000000,4.000000,,,,0.000000,4.000000,4.000000,0.000000,4.000000,4.000000,4.000000,4.000000,4.000000,4.000000,1.000000,4.000000,4.000000,4.000000,2.000000,25.000000
1602278810.781901,17.000000,0.000000,3918.974365,4630.256348,4170.769043,4276.410156,3980.000000,4630.256348,3988.718018,3908.205078,4324.102539,4022.564209,4241.538574,4155.897461,4105.128418,3962.564209,0.000000,4.000000,,,,0.000000,4.000000,4.000000,0.000000,4.000000,4.000000,4.000000,4.000000,4.000000,4.000000,1.000000,4.000000,4.000000,4.000000,2.000000,25.000000
1602278810.789722,18.000000,0.000000,3916.923096,4622.051270,4172.820313,4266.153809,3972.820557,4613.333496,3970.256348,3889.743652,4298.461426,4018.461426,4224.102539,4147.179688,4089.230713,3956.410156,0.000000,4.000000,,,,0.000000,4.000000,4.000000,0.000000,4.000000,4.000000,4.000000,4.000000,4.000000,4.000000,1.000000,4.000000,4.000000,4.000000,2.000000,25.000000
1602278810.797442,19.000000,0.000000,3917.435791,4628.205078,4173.333496,4262.051270,3972.820557,4612.307617,3969.743652,3889.743652,4296.922852,4017.948730,4225.128418,4146.666504,4085.128174,3955.384521,0.000000,4.000000,,,,0.000000,4.000000,4.000000,0.000000,4.000000,4.000000,4.000000,4.000000,4.000000,4.000000,1.000000,4.000000,4.000000,4.000000,2.000000,25.000000
1602278810.805263,20.000000,0.000000,3916.923096,4638.461426,4170.256348,4268.717773,3965.128174,4613.846191,3975.384521,3906.153809,4307.179688,4019.487061,4231.794922,4151.282227,4087.692383,3957.948730,0.000000,4.000000,,,,0.000000,4.000000,4.000000,0.000000,4.000000,4.000000,4.000000,4.000000,4.000000,4.000000,1.000000,4.000000,4.000000,4.000000,2.000000,25.000000
1602278810.812984,21.000000,0.000000,3918.461426,4633.333496,4170.769043,4261.538574,3966.153809,4610.769043,3968.205078,3910.769287,4307.692383,4020.000000,4228.717773,4149.743652,4088.205078,3956.923096,0.000000,4.000000,,,,0.000000,4.000000,4.000000,0.000000,4.000000,4.000000,4.000000,4.000000,4.000000,4.000000,1.000000,4.000000,4.000000,4.000000,2.000000,25.000000
1602278810.820805,22.000000,0.000000,3914.871826,4622.051270,4171.794922,4249.230957,3972.307617,4602.563965,3955.897461,3898.974365,4305.128418,4018.974365,4226.153809,4144.615234,4079.487061,3952.307617,0.000000,4.000000,,,,0.000000,4.000000,4.000000,0.000000,4.000000,4.000000,4.000000,4.000000,4.000000,4.000000,1.000000,4.000000,4.000000,4.000000,2.000000,25.000000
1602278810.828526,23.000000,0.000000,3913.333252,4626.666504,4170.769043,4256.410156,3974.358887,4599.487305,3958.461426,3891.281982,4302.563965,4018.461426,4227.692383,4145.641113,4076.923096,3951.794922,0.000000,4.000000,,,,0.000000,4.000000,4.000000,0.000000,4.000000,4.000000,4.000000,4.000000,4.000000,4.000000,1.000000,4.000000,4.000000,4.000000,2.000000,25.000000
1602278810.836347,24.000000,0.000000,3927.692383,4640.000000,4170.256348,4269.230957,3987.179443,4618.974121,3985.641113,3899.487061,4306.153809,4024.102539,4241.538574,4160.512695,4097.948730,3960.000000,0.000000,4.000000,,,,0.000000,4.000000,4.000000,0.000000,4.000000,4.000000,4.000000,4.000000,4.000000,4.000000,1.000000,4.000000,4.000000,4.000000,2.000000,25.000000
1602278810.844068,25.000000,0.000000,3934.871826,4641.025879,4170.769043,4263.077148,3988.718018,4634.871582,3999.487061,3909.743652,4318.974121,4028.718018,4251.794922,4167.692383,4107.179688,3965.128174,0.000000,4.000000,,,,0.000000,4.000000,4.000000,0.000000,4.000000,4.000000,4.000000,4.000000,4.000000,4.000000,1.000000,4.000000,4.000000,4.000000,2.000000,25.000000
1602278810.851889,26.000000,0.000000,3924.615479,4632.820313,4171.282227,4246.153809,3969.230713,4629.743652,3987.692383,3903.589844,4320.000000,4024.615479,4243.077148,4156.922852,4095.384521,3960.000000,0.000000,4.000000,,,,0.000000,4.000000,4.000000,0.000000,4.000000,4.000000,4.000000,4.000000,4.000000,4.000000,1.000000,4.000000,4.000000,4.000000,2.000000,25.000000
1602278810.859610,27.000000,0.000000,3916.410156,4630.256348,4168.205078,4244.615234,3966.666748,4630.769043,3981.538574,3894.358887,4314.871582,4019.487061,4233.846191,4149.743652,4095.897461,3954.871826,0.000000,4.000000,,,,0.000000,4.000000,4.000000,0.000000,4.000000,4.000000,4.000000,4.000000,4.000000,4.000000,1.000000,4.000000,4.000000,4.000000,2.000000,25.000000
1602278810.867430,28.000000,0.000000,3916.410156,4624.102539,4168.205078,4248.717773,3982.051270,4632.820313,3983.076904,3897.435791,4316.922852,4022.051270,4237.436035,4153.846191,4097.948730,3957.435791,0.000000,4.000000,,,,0.000000,4.000000,4.000000,0.000000,4.000000,4.000000,4.000000,4.000000,4.000000,4.000000,1.000000,4.000000,4.000000,4.000000,2.000000,25.000000
1602278810.875151,29.000000,0.000000,3915.384521,4615.384766,4168.205078,4246.153809,3980.512939,4614.871582,3968.205078,3897.435791,4311.282227,4023.589844,4238.461426,4154.358887,4086.666748,3957.435791,0.000000,4.000000,,,,0.000000,4.000000,4.000000,0.000000,4.000000,4.000000,4.000000,4.000000,4.000000,4.000000,1.000000,4.000000,4.000000,4.000000,2.000000,25.000000
1602278810.883072,30.000000,0.000000,3917.435791,4623.589844,4167.179688,4247.179688,3970.256348,4611.282227,3960.512939,3893.846191,4305.128418,4021.538574,4238.461426,4154.358887,4089.230713,3955.897461,0.000000,4.000000,,,,0.000000,4.000000,4.000000,0.000000,4.000000,4.000000,4.000000,4.000000,4.000000,4.000000,1.000000,4.000000,4.000000,4.000000,2.000000,25.000000
1602278810.890894,31.000000,0.000000,3923.076904,4639.487305,4166.153809,4251.282227,3975.384521,4620.512695,3962.564209,3901.538574,4318.974121,4023.076904,4240.000000,4157.436035,4105.641113,3957.948730,0.000000,4.000000,,,,0.000000,4.000000,4.000000,0.000000,4.000000,4.000000,4.000000,4.000000,4.000000,4.000000,1.000000,4.000000,4.000000,4.000000,2.000000,25.000000
1602278810.898815,32.000000,0.000000,3923.589844,4640.512695,4170.256348,4249.230957,3985.128174,4607.692383,3947.179443,3906.153809,4323.077148,4023.589844,4237.436035,4158.461426,4108.717773,3960.512939,0.000000,4.000000,,,,0.000000,4.000000,4.000000,0.000000,4.000000,4.000000,4.000000,4.000000,4.000000,4.000000,1.000000,4.000000,4.000000,4.000000,2.000000,25.000000
1602278810.906636,33.000000,0.000000,3921.025635,4633.333496,4169.743652,4250.256348,3982.051270,4604.102539,3948.718018,3893.846191,4307.179688,4022.564209,4236.922852,4153.333496,4101.025879,3959.487061,0.000000,4.000000,,,,0.000000,4.000000,4.000000,0.000000,4.000000,4.000000,4.000000,4.000000,4.000000,4.000000,1.000000,4.000000,4.000000,4.000000,2.000000,25.000000
1602278810.914557,34.000000,0.000000,3918.461426,4630.256348,4168.205078,4251.282227,3968.205078,4622.051270,3974.358887,3884.615479,4298.461426,4020.512939,4230.256348,4147.179688,4086.666748,3957.435791,0.000000,4.000000,,,,0.000000,4.000000,4.000000,0.000000,4.000000,4.000000,4.000000,4.000000,4.000000,4.000000,1.000000,4.000000,4.000000,4.000000,2.000000,25.000000
1602278810.922378,35.000000,0.000000,3916.410156,4633.333496,4166.666504,4240.000000,3961.538574,4626.153809,3984.102539,3889.230713,4302.563965,4018.461426,4225.128418,4146.153809,4080.512939,3955.897461,0.000000,4.000000,,,,0.000000,4.000000,4.000000,0.000000,4.000000,4.000000,4.000000,4.000000,4.000000,4.000000,1.000000,4.000000,4.000000,4.000000,2.000000,25.000000
1602278810.930299,36.000000,0.000000,3914.358887,4628.205078,4168.717773,4232.820313,3971.794922,4610.256348,3974.358887,3887.692383,4294.871582,4017.948730,4228.205078,4148.717773,4087.692383,3954.871826,0.000000,4.000000,,,,0.000000,4.000000,4.000000,0.000000,4.000000,4.000000,4.000000,4.000000,4.000000,4.000000,1.000000,4.000000,4.000000,4.000000,2.000000,25.000000
1602278810.938120,37.000000,0.000000,3913.333252,4606.666504,4172.307617,4233.846191,3981.025635,4603.077148,3967.179443,3876.410156,4281.025879,4019.487061,4228.205078,4150.256348,4082.051270,3955.897461,0.000000,4.000000,,,,0.000000,4.000000,4.000000,0.000000,4.000000,4.000000,4.000000,4.000000,4.000000,4.000000,1.000000,4.000000,4.000000,4.000000,2.000000,25.000000
1602278810.946041,38.000000,0.000000,3915.897461,4598.974121,4170.769043,4232.820313,3969.230713,4611.794922,3966.666748,3884.102539,4293.333496,4018.974365,4227.179688,4152.307617,4078.974365,3961.025635,0.000000,4.000000,,,,0.000000,4.000000,4.000000,0.000000,4.000000,4.000000,4.000000,4.000000,4.000000,4.000000,1.000000,4.000000,4.000000,4.000000,2.000000,25.000000
1602278810.953862,39.000000,0.000000,3920.512939,4620.000000,4167.179688,4237.436035,3955.384521,4617.948730,3971.281982,3908.205078,4322.051270,4017.435791,4233.333496,4158.461426,4098.461426,3967.692383,0.000000,4.000000,,,,0.000000,4.000000,4.000000,0.000000,4.000000,4.000000,4.000000,4.000000,4.000000,4.000000,1.000000,4.000000,4.000000,4.000000,2.000000,25.000000
1602278810.961783,40.000000,0.000000,3921.538574,4635.897461,4168.205078,4247.179688,3962.564209,4612.307617,3972.307617,3913.333252,4330.769043,4023.076904,4240.000000,4163.589844,4109.230957,3965.641113,0.000000,4.000000,,,,0.000000,4.000000,4.000000,0.000000,4.000000,4.000000,4.000000,4.000000,4.000000,4.000000,1.000000,4.000000,4.000000,4.000000,2.000000,25.000000
1602278810.969604,41.000000,0.000000,3918.974365,4632.820313,4171.794922,4247.692383,3975.384521,4608.717773,3959.487061,3898.461426,4318.461426,4024.615479,4236.922852,4160.512695,4101.025879,3961.025635,0.000000,4.000000,,,,0.000000,4.000000,4.000000,0.000000,4.000000,4.000000,4.000000,4.000000,4.000000,4.000000,1.000000,4.000000,4.000000,4.000000,2.000000,25.000000
1602278810.977325,42.000000,0.000000,3914.871826,4629.230957,4171.282227,4242.563965,3969.230713,4609.743652,3951.281982,3892.307617,4312.307617,4019.487061,4230.769043,4152.820313,4096.922852,3957.948730,0.000000,4.000000,,,,0.000000,4.000000,4.000000,0.000000,4.000000,4.000000,4.000000,4.000000,4.000000,4.000000,1.000000,4.000000,4.000000,4.000000,2.000000,25.000000
1602278810.985146,43.000000,0.000000,3914.358887,4629.743652,4170.769043,4243.077148,3962.564209,4607.692383,3958.461426,3897.435791,4315.897461,4021.025635,4230.769043,4150.769043,4098.461426,3957.435791,0.000000,4.000000,,,,0.000000,4.000000,4.000000,0.000000,4.000000,4.000000,4.000000,4.000000,4.000000,4.000000,1.000000,4.000000,4.000000,4.000000,2.000000,25.000000
1602278810.992867,44.000000,0.000000,3921.025635,4630.256348,4169.230957,4246.666504,3972.307617,4615.897461,3971.794922,3899.487061,4318.461426,4023.589844,4235.897461,4153.846191,4096.922852,3959.487061,0.000000,4.000000,,,,0.000000,4.000000,4.000000,0.000000,4.000000,4.000000,4.000000,4.000000,4.000000,4.000000,1.000000,4.000000,4.000000,4.000000,2.000000,25.000000
1602278811.000688,45.000000,0.000000,3924.615479,4628.205078,4170.769043,4248.717773,3972.820557,4614.358887,3971.281982,3888.718018,4307.692383,4019.487061,4228.717773,4150.769043,4088.718018,3961.538574,0.000000,4.000000,,,,0.000000,4.000000,4.000000,0.000000,4.000000,4.000000,4.000000,4.000000,4.000000,4.000000,1.000000,4.000000,4.000000,4.000000,2.000000,25.000000
1602278811.008409,46.000000,0.000000,3920.000000,4621.025879,4171.282227,4248.205078,3967.692383,4600.000000,3964.102539,3877.435791,4293.333496,4016.410156,4212.307617,4144.102539,4083.589844,3958.461426,0.000000,4.000000,,,,0.000000,4.000000,4.000000,0.000000,4.000000,4.000000,4.000000,4.000000,4.000000,4.000000,1.000000,4.000000,4.000000,4.000000,2.000000,25.000000
1602278811.016229,47.000000,0.000000,3918.461426,4618.974121,4170.256348,4244.615234,3973.846191,4612.307617,3973.846191,3879.487061,4290.769043,4018.461426,4212.307617,4142.051270,4084.102539,3956.410156,0.000000,4.000000,,,,0.000000,4.000000,4.000000,0.000000,4.000000,4.000000,4.000000,4.000000,4.000000,4.000000,1.000000,4.000000,4.000000,4.000000,2.000000,25.000000
1602278811.023950,48.000000,0.000000,3912.820557,4625.128418,4169.230957,4241.538574,3975.897461,4627.692383,3977.435791,3883.076904,4291.282227,4016.923096,4215.384766,4140.000000,4075.897461,3953.333252,0.000000,4.000000,,,,0.000000,4.000000,4.000000,0.000000,4.000000,4.000000,4.000000,4.000000,4.000000,4.000000,1.000000,4.000000,4.000000,4.000000,2.000000,25.000000
1602278811.031771,49.000000,0.000000,3906.153809,4628.717773,4169.743652,4241.025879,3966.666748,4608.205078,3964.615479,3888.205078,4299.487305,4015.897461,4210.769043,4140.000000,4070.256348,3949.743652,0.000000,4.000000,,,,0.000000,4.000000,4.000000,0.000000,4.000000,4.000000,4.000000,4.000000,4.000000,4.000000,1.000000,4.000000,4.000000,4.000000,2.000000,25.000000
1602278811.039492,50.000000,0.000000,3910.769287,4628.717773,4168.717773,4247.179688,3965.128174,4600.000000,3966.666748,3905.641113,4316.410156,4022.051270,4218.974121,4144.102539,4083.076904,3952.307617,0.000000,4.000000,,,,0.000000,4.000000,4.000000,0.000000,4.000000,4.000000,4.000000,4.000000,4.000000,4.000000,1.000000,4.000000,4.000000,4.000000,2.000000,25.000000
1602278811.047413,51.000000,0.000000,3922.564209,4632.307617,4169.230957,4251.794922,3973.333252,4617.948730,3976.923096,3911.794922,4325.641113,4026.153809,4232.820313,4148.717773,4093.846191,3961.025635,0.000000,4.000000,,,,0.000000,4.000000,4.000000,0.000000,4.000000,4.000000,4.000000,4.000000,4.000000,4.000000,1.000000,4.000000,4.000000,4.000000,2.000000,25.000000
1602278811.055235,52.000000,0.000000,3927.179443,4635.897461,4167.179688,4249.230957,3978.461426,4615.384766,3971.281982,3897.948730,4323.589844,4021.025635,4231.282227,4149.230957,4092.820557,3965.128174,0.000000,4.000000,,,,0.000000,4.000000,4.000000,0.000000,4.000000,4.000000,4.000000,4.000000,4.000000,4.000000,1.000000,4.000000,4.000000,4.000000,2.000000,25.000000
1602278811.063056,53.000000,0.000000,3923.589844,4631.794922,4166.153809,4247.179688,3969.230713,4608.205078,3967.179443,3894.871826,4321.025879,4017.435791,4226.153809,4149.743652,4093.333252,3963.589844,0.000000,4.000000,,,,0.000000,4.000000,4.000000,0.000000,4.000000,4.000000,4.000000,4.000000,4.000000,4.000000,1.000000,4.000000,4.000000,4.000000,2.000000,25.000000
1602278811.070777,54.000000,0.000000,3919.487061,4627.692383,4169.230957,4247.179688,3960.512939,4618.974121,3969.743652,3895.897461,4314.358887,4020.512939,4229.743652,4151.282227,4095.384521,3963.589844,0.000000,4.000000,,,,0.000000,4.000000,4.000000,0.000000,4.000000,4.000000,4.000000,4.000000,4.000000,4.000000,1.000000,4.000000,4.000000,4.000000,2.000000,25.000000
1602278811.078698,55.000000,0.000000,3915.384521,4629.743652,4171.794922,4244.102539,3976.923096,4621.538574,3970.256348,3891.794922,4306.153809,4020.512939,4230.256348,4149.230957,4095.897461,3964.102539,0.000000,4.000000,,,,0.000000,4.000000,4.000000,0.000000,4.000000,4.000000,4.000000,4.000000,4.000000,4.000000,1.000000,4.000000,4.000000,4.000000,2.000000,25.000000
1602278811.086519,56.000000,0.000000,3911.281982,4624.102539,4171.282227,4242.051270,3987.692383,4616.410156,3975.384521,3895.384521,4309.230957,4018.974365,4223.589844,4142.051270,4091.281982,3959.487061,0.000000,4.000000,,,,0.000000,4.000000,4.000000,0.000000,4.000000,4.000000,4.000000,4.000000,4.000000,4.000000,1.000000,4.000000,4.000000,4.000000,2.000000,25.000000
1602278811.094440,57.000000,0.000000,3904.102539,4611.794922,4170.256348,4245.128418,3966.153809,4611.282227,3969.743652,3891.794922,4302.563965,4019.487061,4215.384766,4131.794922,4077.435791,3951.281982,0.000000,4.000000,,,,0.000000,4.000000,4.000000,0.000000,4.000000,4.000000,4.000000,4.000000,4.000000,4.000000,1.000000,4.000000,4.000000,4.000000,2.000000,25.000000
1602278811.102261,58.000000,0.000000,3903.589844,4620.000000,4170.769043,4250.769043,3957.435791,4607.692383,3956.923096,3882.051270,4295.897461,4015.897461,4211.282227,4130.256348,4073.333252,3951.794922,0.000000,4.000000,,,,0.000000,4.000000,4.000000,0.000000,4.000000,4.000000,4.000000,4.000000,4.000000,4.000000,1.000000,4.000000,4.000000,4.000000,2.000000,25.000000
1602278811.110182,59.000000,0.000000,3908.718018,4636.410156,4170.256348,4247.692383,3969.743652,4615.384766,3966.153809,3891.794922,4308.717773,4015.384521,4215.384766,4135.897461,4083.589844,3955.384521,0.000000,4.000000,,,,0.000000,4.000000,4.000000,0.000000,4.000000,4.000000,4.000000,4.000000,4.000000,4.000000,1.000000,4.000000,4.000000,4.000000,2.000000,25.000000
1602278811.118003,60.000000,0.000000,3905.128174,4627.692383,4168.717773,4235.897461,3975.897461,4615.897461,3971.281982,3893.846191,4308.717773,4019.487061,4216.922852,4136.410156,4082.051270,3952.820557,0.000000,4.000000,,,,0.000000,4.000000,4.000000,0.000000,4.000000,4.000000,4.000000,4.000000,4.000000,4.000000,1.000000,4.000000,4.000000,4.000000,2.000000,25.000000
1602278811.125924,61.000000,0.000000,3904.615479,4614.871582,4166.666504,4234.871582,3983.589844,4606.153809,3963.589844,3881.025635,4298.461426,4021.025635,4212.307617,4135.384766,4075.384521,3950.256348,0.000000,4.000000,,,,0.000000,4.000000,4.000000,0.000000,4.000000,4.000000,4.000000,4.000000,4.000000,4.000000,1.000000,4.000000,4.000000,4.000000,2.000000,25.000000
1602278811.133745,62.000000,0.000000,3915.384521,4626.153809,4170.769043,4249.230957,3986.666748,4621.538574,3976.410156,3891.794922,4315.897461,4020.512939,4220.000000,4145.641113,4084.102539,3955.897461,0.000000,4.000000,,,,0.000000,4.000000,4.000000,0.000000,4.000000,4.000000,4.000000,4.000000,4.000000,4.000000,1.000000,4.000000,4.000000,4.000000,2.000000,25.000000
1602278811.141666,63.000000,0.000000,3914.871826,4636.410156,4171.794922,4252.307617,3970.256348,4638.461426,3990.256348,3902.564209,4332.307617,4021.025635,4228.717773,4147.692383,4090.256348,3958.461426,0.000000,4.000000,,,,0.000000,4.000000,4.000000,0.000000,4.000000,4.000000,4.000000,4.000000,4.000000,4.000000,1.000000,4.000000,4.000000,4.000000,2.000000,25.000000
1602278811.149487,64.000000,0.000000,3901.025635,4625.128418,4167.179688,4235.384766,3967.692383,4625.641113,3977.435791,3888.718018,4316.410156,4021.025635,4224.615234,4135.897461,4083.589844,3955.897461,0.000000,4.000000,,,,0.000000,4.000000,4.000000,0.000000,4.000000,4.000000,4.000000,4.000000,4.000000,4.000000,1.000000,4.000000,4.000000,4.000000,2.000000,25.000000
1602278811.157408,65.000000,0.000000,3901.025635,4612.820313,4164.615234,4233.846191,3985.641113,4615.384766,3967.692383,3886.153809,4306.153809,4019.487061,4221.538574,4134.871582,4082.564209,3956.923096,426.000000,4.000000,,,,0.000000,4.000000,4.000000,0.000000,4.000000,4.000000,4.000000,4.000000,4.000000,4.000000,1.000000,4.000000,4.000000,4.000000,2.000000,25.000000
1602278811.165229,66.000000,0.000000,3909.743652,4615.384766,4169.230957,4247.179688,3987.179443,4622.051270,3974.871826,3894.358887,4310.769043,4020.000000,4222.051270,4145.128418,4089.743652,3957.435791,387.000000,4.000000,,,,0.000000,4.000000,4.000000,0.000000,4.000000,4.000000,4.000000,4.000000,4.000000,4.000000,1.000000,4.000000,4.000000,4.000000,2.000000,25.000000
1602278811.172950,67.000000,0.000000,3906.666748,4619.487305,4167.179688,4249.743652,3971.281982,4618.974121,3978.461426,3888.718018,4306.666504,4020.512939,4222.563965,4148.205078,4088.205078,3955.897461,444.000000,4.000000,,,,0.000000,4.000000,4.000000,0.000000,4.000000,4.000000,4.000000,4.000000,4.000000,4.000000,1.000000,4.000000,4.000000,4.000000,2.000000,25.000000
1602278811.180770,68.000000,0.000000,3905.128174,4621.025879,4164.102539,4246.153809,3965.641113,4614.358887,3973.846191,3890.256348,4308.205078,4021.025635,4227.692383,4146.666504,4084.102539,3960.512939,476.000000,4.000000,,,,0.000000,4.000000,4.000000,0.000000,4.000000,4.000000,4.000000,4.000000,4.000000,4.000000,1.000000,4.000000,4.000000,4.000000,2.000000,25.000000
1602278811.188491,69.000000,0.000000,3917.435791,4632.820313,4167.692383,4249.230957,3982.051270,4623.589844,3978.974365,3909.743652,4325.641113,4023.589844,4235.384766,4152.820313,4095.384521,3965.128174,415.000000,4.000000,,,,0.000000,4.000000,4.000000,0.000000,4.000000,4.000000,4.000000,4.000000,4.000000,4.000000,1.000000,4.000000,4.000000,4.000000,2.000000,25.000000
1602278811.196312,70.000000,0.000000,3927.179443,4643.077148,4172.820313,4251.282227,3998.974365,4628.717773,3985.128174,3909.230713,4334.358887,4026.153809,4233.846191,4160.512695,4108.205078,3966.153809,472.000000,4.000000,,,,0.000000,4.000000,4.000000,0.000000,4.000000,4.000000,4.000000,4.000000,4.000000,4.000000,1.000000,4.000000,4.000000,4.000000,2.000000,25.000000
1602278811.204033,71.000000,0.000000,3926.153809,4631.794922,4170.256348,4248.205078,3984.102539,4618.461426,3973.333252,3887.692383,4317.948730,4022.051270,4229.743652,4155.384766,4097.948730,3967.179443,393.000000,4.000000,,,,0.000000,4.000000,4.000000,0.000000,4.000000,4.000000,4.000000,4.000000,4.000000,4.000000,1.000000,4.000000,4.000000,4.000000,2.000000,25.000000
1602278811.211854,72.000000,0.000000,3917.435791,4614.871582,4166.666504,4249.230957,3964.102539,4610.769043,3958.461426,3881.025635,4303.077148,4017.948730,4224.102539,4146.666504,4086.153809,3963.589844,413.000000,4.000000,,,,0.000000,4.000000,4.000000,0.000000,4.000000,4.000000,4.000000,4.000000,4.000000,4.000000,1.000000,4.000000,4.000000,4.000000,2.000000,25.000000
1602278811.219575,73.000000,0.000000,3906.666748,4612.307617,4167.692383,4244.615234,3968.718018,4611.282227,3960.512939,3886.153809,4304.102539,4019.487061,4218.974121,4147.179688,4090.769287,3956.923096,57.000000,4.000000,,,,0.000000,4.000000,4.000000,0.000000,4.000000,4.000000,4.000000,4.000000,4.000000,4.000000,1.000000,4.000000,4.000000,4.000000,2.000000,25.000000
1602278811.227496,74.000000,0.000000,3902.564209,4615.384766,4168.205078,4237.948730,3976.410156,4612.307617,3968.205078,3888.718018,4306.666504,4020.512939,4223.589844,4151.282227,4087.692383,3956.410156,445.000000,4.000000,,,,0.000000,4.000000,4.000000,0.000000,4.000000,4.000000,4.000000,4.000000,4.000000,4.000000,1.000000,4.000000,4.000000,4.000000,2.000000,25.000000
1602278811.235318,75.000000,0.000000,3904.102539,4616.410156,4167.179688,4242.051270,3970.769287,4617.436035,3972.307617,3892.820557,4308.717773,4021.025635,4223.077148,4148.205078,4077.435791,3957.948730,230.000000,4.000000,,,,0.000000,4.000000,4.000000,0.000000,4.000000,4.000000,4.000000,4.000000,4.000000,4.000000,1.000000,4.000000,4.000000,4.000000,2.000000,25.000000
1602278811.243239,76.000000,0.000000,3901.025635,4620.512695,4165.641113,4241.538574,3965.641113,4624.615234,3977.435791,3897.435791,4315.384766,4021.538574,4216.922852,4144.615234,4082.051270,3955.384521,425.000000,4.000000,,,,0.000000,4.000000,4.000000,0.000000,4.000000,4.000000,4.000000,4.000000,4.000000,4.000000,1.000000,4.000000,4.000000,4.000000,2.000000,25.000000
1602278811.251060,77.000000,0.000000,3897.948730,4625.641113,4165.641113,4239.487305,3970.256348,4624.102539,3977.948730,3900.000000,4322.051270,4020.512939,4216.922852,4145.128418,4090.256348,3955.384521,356.000000,4.000000,,,,0.000000,4.000000,4.000000,0.000000,4.000000,4.000000,4.000000,4.000000,4.000000,4.000000,1.000000,4.000000,4.000000,4.000000,2.000000,25.000000
1602278811.258981,78.000000,0.000000,3902.051270,4622.563965,4165.641113,4243.589844,3981.025635,4615.384766,3971.281982,3897.948730,4318.461426,4018.974365,4217.948730,4141.025879,4086.153809,3953.846191,445.000000,4.000000,,,,0.000000,4.000000,4.000000,0.000000,4.000000,4.000000,4.000000,4.000000,4.000000,4.000000,1.000000,4.000000,4.000000,4.000000,2.000000,25.000000
1602278811.266802,79.000000,0.000000,3904.615479,4616.922852,4168.205078,4249.743652,3984.615479,4603.077148,3963.589844,3888.205078,4305.641113,4018.974365,4216.922852,4137.948730,4088.205078,3957.948730,230.000000,4.000000,,,,0.000000,4.000000,4.000000,0.000000,4.000000,4.000000,4.000000,4.000000,4.000000,4.000000,1.000000,4.000000,4.000000,4.000000,2.000000,25.000000
1602278811.274723,80.000000,0.000000,3909.230713,4626.666504,4166.666504,4253.846191,3976.923096,4609.230957,3966.153809,3883.589844,4303.077148,4022.564209,4226.666504,4146.666504,4100.000000,3967.179443,425.000000,4.000000,,,,0.000000,4.000000,4.000000,0.000000,4.000000,4.000000,4.000000,4.000000,4.000000,4.000000,1.000000,4.000000,4.000000,4.000000,2.000000,25.000000
1602278811.282544,81.000000,0.000000,3921.025635,4640.512695,4166.153809,4257.948730,3975.384521,4628.717773,3972.307617,3890.256348,4314.871582,4025.641113,4238.461426,4157.948730,4100.512695,3971.281982,356.000000,4.000000,,,,0.000000,4.000000,4.000000,0.000000,4.000000,4.000000,4.000000,4.000000,4.000000,4.000000,1.000000,4.000000,4.000000,4.000000,2.000000,25.000000
1602278811.290465,82.000000,0.000000,3922.051270,4642.563965,4168.205078,4260.512695,3982.051270,4628.717773,3968.718018,3891.794922,4323.077148,4023.589844,4232.820313,4156.410156,4096.410156,3967.179443,445.000000,4.000000,,,,0.000000,4.000000,4.000000,0.000000,4.000000,4.000000,4.000000,4.000000,4.000000,4.000000,1.000000,4.000000,4.000000,4.000000,2.000000,25.000000
1602278811.298286,83.000000,0.000000,3913.333252,4638.461426,4171.282227,4259.487305,3984.102539,4617.436035,3967.692383,3892.307617,4321.025879,4020.512939,4229.743652,4152.820313,4101.538574,3964.615479,230.000000,4.000000,,,,0.000000,4.000000,4.000000,0.000000,4.000000,4.000000,4.000000,4.000000,4.000000,4.000000,1.000000,4.000000,4.000000,4.000000,2.000000,25.000000
1602278811.306207,84.000000,0.000000,3913.333252,4632.820313,4169.743652,4260.000000,3980.512939,4622.563965,3973.846191,3897.948730,4322.563965,4022.051270,4234.871582,4155.897461,4106.666504,3964.615479,425.000000,4.000000,,,,0.000000,4.000000,4.000000,0.000000,4.000000,4.000000,4.000000,4.000000,4.000000,4.000000,1.000000,4.000000,4.000000,4.000000,2.000000,25.000000
1602278811.314028,85.000000,0.000000,3917.435791,4629.743652,4166.666504,4256.410156,3970.256348,4624.102539,3971.794922,3892.820557,4316.922852,4022.564209,4226.666504,4153.846191,4101.025879,3965.641113,356.000000,4.000000,,,,0.000000,4.000000,4.000000,0.000000,4.000000,4.000000,4.000000,4.000000,4.000000,4.000000,1.000000,4.000000,4.000000,4.000000,2.000000,25.000000
1602278811.321949,86.000000,0.000000,3914.871826,4630.769043,4168.205078,4247.692383,3966.666748,4610.769043,3966.666748,3882.051270,4302.563965,4019.487061,4217.436035,4146.153809,4088.718018,3964.102539,445.000000,4.000000,,,,0.000000,4.000000,4.000000,0.000000,4.000000,4.000000,4.000000,4.000000,4.000000,4.000000,1.000000,4.000000,4.000000,4.000000,2.000000,25.000000
1602278811.329770,87.000000,0.000000,3913.333252,4629.230957,4170.769043,4243.589844,3977.948730,4610.256348,3969.743652,3884.615479,4300.000000,4019.487061,4225.641113,4147.179688,4085.128174,3960.512939,230.000000,4.000000,,,,0.000000,4.000000,4.000000,0.000000,4.000000,4.000000,4.000000,4.000000,4.000000,4.000000,1.000000,4.000000,4.000000,4.000000,2.000000,25.000000
1602278811.337491,88.000000,0.000000,3913.846191,4629.230957,4170.769043,4253.846191,3979.487061,4617.948730,3977.948730,3895.384521,4309.743652,4020.512939,4230.769043,4152.820313,4090.256348,3961.538574,425.000000,4.000000,,,,0.000000,4.000000,4.000000,0.000000,4.000000,4.000000,4.000000,4.000000,4.000000,4.000000,1.000000,4.000000,4.000000,4.000000,2.000000,25.000000
1602278811.345312,89.000000,0.000000,3908.718018,4630.256348,4168.717773,4264.102539,3971.281982,4617.948730,3980.000000,3900.000000,4315.897461,4018.974365,4222.051270,4150.769043,4091.794922,3959.487061,356.000000,4.000000,,,,0.000000,4.000000,4.000000,0.000000,4.000000,4.000000,4.000000,4.000000,4.000000,4.000000,1.000000,4.000000,4.000000,4.000000,2.000000,25.000000
1602278811.353033,90.000000,0.000000,3903.589844,4621.538574,4169.230957,4257.436035,3972.307617,4616.922852,3974.358887,3896.923096,4312.307617,4016.410156,4218.461426,4146.153809,4085.641113,3954.871826,445.000000,4.000000,,,,0.000000,4.000000,4.000000,0.000000,4.000000,4.000000,4.000000,4.000000,4.000000,4.000000,1.000000,4.000000,4.000000,4.000000,2.000000,25.000000
1602278811.360854,91.000000,0.000000,3903.076904,4620.512695,4167.692383,4255.897461,3981.538574,4617.436035,3968.718018,3893.846191,4310.769043,4016.923096,4220.000000,4145.641113,4084.102539,3953.846191,230.000000,4.000000,,,,0.000000,4.000000,4.000000,0.000000,4.000000,4.000000,4.000000,4.000000,4.000000,4.000000,1.000000,4.000000,4.000000,4.000000,2.000000,25.000000
1602278811.368575,92.000000,0.000000,3906.153809,4632.307617,4166.666504,4263.589844,3981.025635,4613.846191,3963.076904,3887.179443,4310.256348,4020.000000,4217.436035,4146.153809,4078.461426,3953.846191,425.000000,4.000000,,,,0.000000,4.000000,4.000000,0.000000,4.000000,4.000000,4.000000,4.000000,4.000000,4.000000,1.000000,4.000000,4.000000,4.000000,2.000000,25.000000
1602278811.376396,93.000000,0.000000,3912.820557,4634.358887,4169.230957,4268.717773,3976.410156,4614.871582,3961.025635,3883.589844,4309.743652,4020.512939,4217.948730,4145.641113,4075.384521,3953.846191,356.000000,4.000000,,,,0.000000,4.000000,4.000000,0.000000,4.000000,4.000000,4.000000,4.000000,4.000000,4.000000,1.000000,4.000000,4.000000,4.000000,2.000000,25.000000
1602278811.384117,94.000000,0.000000,3919.487061,4632.307617,4172.820313,4269.230957,3986.666748,4621.025879,3966.153809,3892.307617,4314.871582,4020.512939,4227.179688,4149.230957,4090.769287,3961.538574,445.000000,4.000000,,,,0.000000,4.000000,4.000000,0.000000,4.000000,4.000000,4.000000,4.000000,4.000000,4.000000,1.000000,4.000000,4.000000,4.000000,2.000000,25.000000
1602278811.391938,95.000000,0.000000,3918.974365,4635.384766,4168.717773,4266.153809,3989.743652,4618.461426,3969.230713,3897.435791,4319.487305,4019.487061,4228.205078,4149.230957,4094.358887,3962.051270,230.000000,4.000000,,,,0.000000,4.000000,4.000000,0.000000,4.000000,4.000000,4.000000,4.000000,4.000000,4.000000,1.000000,4.000000,4.000000,4.000000,2.000000,25.000000
1602278811.399658,96.000000,0.000000,3914.871826,4630.769043,4164.615234,4262.563965,3978.461426,4617.948730,3971.794922,3890.769287,4311.282227,4019.487061,4218.974121,4144.615234,4083.076904,3958.461426,425.000000,4.000000,,,,0.000000,4.000000,4.000000,0.000000,4.000000,4.000000,4.000000,4.000000,4.000000,4.000000,1.000000,4.000000,4.000000,4.000000,2.000000,25.000000
1602278811.407479,97.000000,0.000000,3909.743652,4618.461426,4164.615234,4260.000000,3973.333252,4620.512695,3972.820557,3877.435791,4293.333496,4019.487061,4213.333496,4144.102539,4078.461426,3959.487061,356.000000,4.000000,,,,0.000000,4.000000,4.000000,0.000000,4.000000,4.000000,4.000000,4.000000,4.000000,4.000000,1.000000,4.000000,4.000000,4.000000,2.000000,25.000000
1602278811.415200,98.000000,0.000000,3904.102539,4614.871582,4167.692383,4253.333496,3972.307617,4608.717773,3958.974365,3872.820557,4285.641113,4015.384521,4208.717773,4145.641113,4074.358887,3959.487061,445.000000,4.000000,,,,0.000000,4.000000,4.000000,0.000000,4.000000,4.000000,4.000000,4.000000,4.000000,4.000000,1.000000,4.000000,4.000000,4.000000,2.000000,25.000000
1602278811.423121,99.000000,0.000000,3904.102539,4619.487305,4169.230957,4253.846191,3979.487061,4609.230957,3956.923096,3885.641113,4295.897461,4013.333252,4210.256348,4145.128418,4067.692383,3955.897461,230.000000,4.000000,,,,0.000000,4.000000,4.000000,0.000000,4.000000,4.000000,4.000000,4.000000,4.000000,4.000000,1.000000,4.000000,4.000000,4.000000,2.000000,25.000000
1602278811.430942,100.000000,0.000000,3906.666748,4621.538574,4169.743652,4261.025879,3993.846191,4630.256348,3979.487061,3900.000000,4314.871582,4016.923096,4218.461426,4145.641113,4072.307617,3959.487061,425.000000,4.000000,,,,0.000000,4.000000,4.000000,0.000000,4.000000,4.000000,4.000000,4.000000,4.000000,4.000000,1.000000,4.000000,4.000000,4.000000,2.000000,25.000000
1602278811.438863,101.000000,0.000000,3905.128174,4621.538574,4170.256348,4255.897461,3989.743652,4634.871582,3987.692383,3905.641113,4327.179688,4019.487061,4219.487305,4148.205078,4076.923096,3960.512939,356.000000,4.000000,,,,0.000000,4.000000,4.000000,0.000000,4.000000,4.000000,4.000000,4.000000,4.000000,4.000000,1.000000,4.000000,4.000000,4.000000,2.000000,25.000000
1602278811.446684,102.000000,0.000000,3898.974365,4619.487305,4171.282227,4246.666504,3966.153809,4614.871582,3969.743652,3906.153809,4321.538574,4018.974365,4214.871582,4144.615234,4071.794922,3952.820557,445.000000,4.000000,,,,0.000000,4.000000,4.000000,0.000000,4.000000,4.000000,4.000000,4.000000,4.000000,4.000000,1.000000,4.000000,4.000000,4.000000,2.000000,25.000000
1602278811.454605,103.000000,0.000000,3896.410156,4615.384766,4170.769043,4249.743652,3962.051270,4603.077148,3963.589844,3901.025635,4312.307617,4019.487061,4214.358887,4139.487305,4071.794922,3949.743652,230.000000,4.000000,,,,0.000000,4.000000,4.000000,0.000000,4.000000,4.000000,4.000000,4.000000,4.000000,4.000000,1.000000,4.000000,4.000000,4.000000,2.000000,25.000000
1602278811.462426,104.000000,0.000000,3900.512939,4614.358887,4168.205078,4260.512695,3980.000000,4611.794922,3971.794922,3893.846191,4314.871582,4019.487061,4215.897461,4142.051270,4073.333252,3953.846191,425.000000,4.000000,,,,0.000000,4.000000,4.000000,0.000000,4.000000,4.000000,4.000000,4.000000,4.000000,4.000000,1.000000,4.000000,4.000000,4.000000,2.000000,25.000000
1602278811.470347,105.000000,0.000000,3905.641113,4622.051270,4166.666504,4267.179688,3984.102539,4618.461426,3968.205078,3890.769287,4315.897461,4018.974365,4217.436035,4145.128418,4074.871826,3958.461426,356.000000,4.000000,,,,0.000000,4.000000,4.000000,0.000000,4.000000,4.000000,4.000000,4.000000,4.000000,4.000000,1.000000,4.000000,4.000000,4.000000,2.000000,25.000000
1602278811.478168,106.000000,0.000000,3907.179443,4630.256348,4167.692383,4261.538574,3976.923096,4614.358887,3958.461426,3885.128174,4302.051270,4020.512939,4216.922852,4141.538574,4075.897461,3958.974365,445.000000,4.000000,,,,0.000000,4.000000,4.000000,0.000000,4.000000,4.000000,4.000000,4.000000,4.000000,4.000000,1.000000,4.000000,4.000000,4.000000,2.000000,25.000000
1602278811.486089,107.000000,0.000000,3905.128174,4627.692383,4169.230957,4254.871582,3972.820557,4607.692383,3961.538574,3881.025635,4296.922852,4017.435791,4206.153809,4134.358887,4068.205078,3957.948730,230.000000,4.000000,,,,0.000000,4.000000,4.000000,0.000000,4.000000,4.000000,4.000000,4.000000,4.000000,4.000000,1.000000,4.000000,4.000000,4.000000,2.000000,25.000000
1602278811.493910,108.000000,0.000000,3905.128174,4622.563965,4168.717773,4259.487305,3982.051270,4612.307617,3967.692383,3891.281982,4308.205078,4012.307617,4202.563965,4132.820313,4063.589844,3955.384521,425.000000,4.000000,,,,0.000000,4.000000,4.000000,0.000000,4.000000,4.000000,4.000000,4.000000,4.000000,4.000000,1.000000,4.000000,4.000000,4.000000,2.000000,25.000000
1602278811.501831,109.000000,0.000000,3907.692383,4624.615234,4166.153809,4265.641113,3992.820557,4617.436035,3968.205078,3898.461426,4311.794922,4013.846191,4211.794922,4138.974121,4067.692383,3953.846191,356.000000,4.000000,,,,0.000000,4.000000,4.000000,0.000000,4.000000,4.000000,4.000000,4.000000,4.000000,4.000000,1.000000,4.000000,4.000000,4.000000,2.000000,25.000000
1602278811.509652,110.000000,0.000000,3913.333252,4629.743652,4163.589844,4272.820313,3986.153809,4615.897461,3968.718018,3893.333252,4312.307617,4018.974365,4220.512695,4146.666504,4076.410156,3954.871826,445.000000,4.000000,,,,0.000000,4.000000,4.000000,0.000000,4.000000,4.000000,4.000000,4.000000,4.000000,4.000000,1.000000,4.000000,4.000000,4.000000,2.000000,25.000000
1602278811.517373,111.000000,0.000000,3918.461426,4632.820313,4169.743652,4275.384766,3980.000000,4618.974121,3971.281982,3894.871826,4321.538574,4022.051270,4229.743652,4151.794922,4087.692383,3961.025635,230.000000,4.000000,,,,0.000000,4.000000,4.000000,0.000000,4.000000,4.000000,4.000000,4.000000,4.000000,4.000000,1.000000,4.000000,4.000000,4.000000,2.000000,25.000000
1602278811.525194,112.000000,0.000000,3918.974365,4633.846191,4173.333496,4268.205078,3983.076904,4615.897461,3969.230713,3900.512939,4326.666504,4020.512939,4234.871582,4151.794922,4095.384521,3964.102539,425.000000,4.000000,,,,0.000000,4.000000,4.000000,0.000000,4.000000,4.000000,4.000000,4.000000,4.000000,4.000000,1.000000,4.000000,4.000000,4.000000,2.000000,25.000000
1602278811.532915,113.000000,0.000000,3917.948730,4638.461426,4172.307617,4266.153809,3981.538574,4610.256348,3964.102539,3892.307617,4319.487305,4018.461426,4231.282227,4151.282227,4097.436035,3963.076904,356.000000,4.000000,,,,0.000000,4.000000,4.000000,0.000000,4.000000,4.000000,4.000000,4.000000,4.000000,4.000000,1.000000,4.000000,4.000000,4.000000,2.000000,25.000000
1602278811.540736,114.000000,0.000000,3916.923096,4634.871582,4169.230957,4268.717773,3985.128174,4618.461426,3965.128174,3881.025635,4310.256348,4020.000000,4225.641113,4151.282227,4094.358887,3962.564209,445.000000,4.000000,,,,0.000000,4.000000,4.000000,0.000000,4.000000,4.000000,4.000000,4.000000,4.000000,4.000000,1.000000,4.000000,4.000000,4.000000,2.000000,25.000000
1602278811.548457,115.000000,0.000000,3910.769287,4618.461426,4168.717773,4261.538574,3992.307617,4625.641113,3966.666748,3881.538574,4307.692383,4020.000000,4218.461426,4146.666504,4077.435791,3959.487061,230.000000,4.000000,,,,0.000000,4.000000,4.000000,0.000000,4.000000,4.000000,4.000000,4.000000,4.000000,4.000000,1.000000,4.000000,4.000000,4.000000,2.000000,25.000000
1602278811.556278,116.000000,0.000000,3905.641113,4615.897461,4169.743652,4263.077148,3986.153809,4617.436035,3966.666748,3888.205078,4309.230957,4018.461426,4217.948730,4143.077148,4067.692383,3955.384521,425.000000,4.000000,,,,0.000000,4.000000,4.000000,0.000000,4.000000,4.000000,4.000000,4.000000,4.000000,4.000000,1.000000,4.000000,4.000000,4.000000,2.000000,25.000000
1602278811.563999,117.000000,0.000000,3912.820557,4634.871582,4171.794922,4279.487305,3981.025635,4615.897461,3971.281982,3886.666748,4308.205078,4018.974365,4229.230957,4147.179688,4088.205078,3960.000000,356.000000,4.000000,,,,0.000000,4.000000,4.000000,0.000000,4.000000,4.000000,4.000000,4.000000,4.000000,4.000000,1.000000,4.000000,4.000000,4.000000,2.000000,25.000000
1602278811.571820,118.000000,0.000000,3915.897461,4637.436035,4169.743652,4279.487305,3989.230713,4611.794922,3966.666748,3878.461426,4303.077148,4020.512939,4226.666504,4147.692383,4098.461426,3963.076904,445.000000,4.000000,,,,0.000000,4.000000,4.000000,0.000000,4.000000,4.000000,4.000000,4.000000,4.000000,4.000000,1.000000,4.000000,4.000000,4.000000,2.000000,25.000000
1602278811.579541,119.000000,0.000000,3908.718018,4624.102539,4168.205078,4266.153809,3987.179443,4600.000000,3954.358887,3873.333252,4304.615234,4018.461426,4211.794922,4142.051270,4082.051270,3960.000000,230.000000,4.000000,,,,0.000000,4.000000,4.000000,0.000000,4.000000,4.000000,4.000000,4.000000,4.000000,4.000000,1.000000,4.000000,4.000000,4.000000,2.000000,25.000000
1602278811.587361,120.000000,0.000000,3913.846191,4635.897461,4170.256348,4264.102539,3980.000000,4609.743652,3958.974365,3877.948730,4309.743652,4015.384521,4217.436035,4146.153809,4084.102539,3963.076904,425.000000,4.000000,,,,0.000000,4.000000,4.000000,0.000000,4.000000,4.000000,4.000000,4.000000,4.000000,4.000000,1.000000,4.000000,4.000000,4.000000,2.000000,25.000000
1602278811.595082,121.000000,0.000000,3920.000000,4651.794922,4169.743652,4272.307617,3981.025635,4625.641113,3970.769287,3886.153809,4311.794922,4017.435791,4233.333496,4151.282227,4094.871826,3965.128174,356.000000,4.000000,,,,0.000000,4.000000,4.000000,0.000000,4.000000,4.000000,4.000000,4.000000,4.000000,4.000000,1.000000,4.000000,4.000000,4.000000,2.000000,25.000000
1602278811.603003,122.000000,0.000000,3910.769287,4640.000000,4167.692383,4272.820313,3981.025635,4619.487305,3964.102539,3884.102539,4311.282227,4020.000000,4234.358887,4149.230957,4083.076904,3961.538574,445.000000,4.000000,,,,0.000000,4.000000,4.000000,0.000000,4.000000,4.000000,4.000000,4.000000,4.000000,4.000000,1.000000,4.000000,4.000000,4.000000,2.000000,25.000000
1602278811.610825,123.000000,0.000000,3906.153809,4632.820313,4169.743652,4264.615234,3978.461426,4613.333496,3957.435791,3879.487061,4309.230957,4020.512939,4229.743652,4146.666504,4077.435791,3958.974365,230.000000,4.000000,,,,0.000000,4.000000,4.000000,0.000000,4.000000,4.000000,4.000000,4.000000,4.000000,4.000000,1.000000,4.000000,4.000000,4.000000,2.000000,25.000000
1602278811.618746,124.000000,0.000000,3908.205078,4641.025879,4172.307617,4253.846191,3980.000000,4616.410156,3963.076904,3884.615479,4307.692383,4021.538574,4233.846191,4148.717773,4093.333252,3958.461426,425.000000,4.000000,,,,0.000000,4.000000,4.000000,0.000000,4.000000,4.000000,4.000000,4.000000,4.000000,4.000000,1.000000,4.000000,4.000000,4.000000,2.000000,25.000000
1602278811.626567,125.000000,0.000000,3909.743652,4635.897461,4171.282227,4248.205078,3992.820557,4622.563965,3972.307617,3892.307617,4316.410156,4022.564209,4241.025879,4149.743652,4100.000000,3957.435791,356.000000,4.000000,,,,0.000000,4.000000,4.000000,0.000000,4.000000,4.000000,4.000000,4.000000,4.000000,4.000000,1.000000,4.000000,4.000000,4.000000,2.000000,25.000000
1602278811.634488,126.000000,0.000000,3913.333252,4623.589844,4172.820313,4249.230957,4001.538574,4621.538574,3972.820557,3894.358887,4323.077148,4021.538574,4239.487305,4147.692383,4091.281982,3962.051270,445.000000,4.000000,,,,0.000000,4.000000,4.000000,0.000000,4.000000,4.000000,4.000000,4.000000,4.000000,4.000000,1.000000,4.000000,4.000000,4.000000,2.000000,25.000000
1602278811.642309,127.000000,0.000000,3912.307617,4630.256348,4171.282227,4249.230957,3987.179443,4609.230957,3961.025635,3892.307617,4313.846191,4019.487061,4231.794922,4143.077148,4086.666748,3959.487061,230.000000,4.000000,,,,0.000000,4.000000,4.000000,0.000000,4.000000,4.000000,4.000000,4.000000,4.000000,4.000000,1.000000,4.000000,4.000000,4.000000,2.000000,25.000000
1602278811.650230,128.000000,0.000000,3909.743652,4641.538574,4169.743652,4246.666504,3976.410156,4609.743652,3963.076904,3889.230713,4308.717773,4020.000000,4231.794922,4144.102539,4088.205078,3956.923096,425.000000,4.000000,,,,0.000000,4.000000,4.000000,0.000000,4.000000,4.000000,4.000000,4.000000,4.000000,4.000000,1.000000,4.000000,4.000000,4.000000,2.000000,25.000000
1602278811.658051,0.000000,0.000000,3910.769287,4636.922852,4170.769043,4247.692383,3988.718018,4619.487305,3974.358887,3887.179443,4312.820313,4021.025635,4234.358887,4148.717773,4087.179443,3961.025635,0.000000,4.000000,,,,0.000000,4.000000,4.000000,0.000000,4.000000,4.000000,4.000000,4.000000,4.000000,4.000000,1.000000,4.000000,4.000000,4.000000,2.000000,25.000000
1602278811.665972,1.000000,0.000000,3911.281982,4630.769043,4172.820313,4247.179688,3994.358887,4613.333496,3966.153809,3884.615479,4306.153809,4020.512939,4232.307617,4148.205078,4089.230713,3962.564209,426.000000,4.000000,,,,0.000000,4.000000,4.000000,0.000000,4.000000,4.000000,4.000000,4.000000,4.000000,4.000000,1.000000,4.000000,4.000000,4.000000,2.000000,25.000000
1602278811.673793,2.000000,0.000000,3914.358887,4641.025879,4167.692383,4245.128418,3984.615479,4612.820313,3961.538574,3884.615479,4301.538574,4021.025635,4237.436035,4151.282227,4093.846191,3960.512939,387.000000,4.000000,,,,0.000000,4.000000,4.000000,0.000000,4.000000,4.000000,4.000000,4.000000,4.000000,4.000000,1.000000,4.000000,4.000000,4.000000,2.000000,25.000000
1602278811.681714,3.000000,0.000000,3920.512939,4644.615234,4166.153809,4248.717773,3986.666748,4623.077148,3976.923096,3888.205078,4312.307617,4021.025635,4243.077148,4153.846191,4093.333252,3964.102539,444.000000,4.000000,,,,0.000000,4.000000,4.000000,0.000000,4.000000,4.000000,4.000000,4.000000,4.000000,4.000000,1.000000,4.000000,4.000000,4.000000,2.000000,25.000000
1602278811.689535,4.000000,0.000000,3915.384521,4630.256348,4168.717773,4251.282227,3995.384521,4625.641113,3977.435791,3893.846191,4321.538574,4023.589844,4234.871582,4149.230957,4087.179443,3964.615479,476.000000,4.000000,,,,0.000000,4.000000,4.000000,0.000000,4.000000,4.000000,4.000000,4.000000,4.000000,4.000000,1.000000,4.000000,4.000000,4.000000,2.000000,25.000000
1602278811.697356,5.000000,0.000000,3908.718018,4635.897461,4168.717773,4248.717773,4001.538574,4625.128418,3969.743652,3895.897461,4319.487305,4025.128174,4229.230957,4149.743652,4088.205078,3961.025635,415.000000,4.000000,,,,0.000000,4.000000,4.000000,0.000000,4.000000,4.000000,4.000000,4.000000,4.000000,4.000000,1.000000,4.000000,4.000000,4.000000,2.000000,25.000000
1602278811.705177,6.000000,0.000000,3917.948730,4659.487305,4168.205078,4251.794922,4006.153809,4627.179688,3974.358887,3895.897461,4315.897461,4025.641113,4239.487305,4156.922852,4095.384521,3964.615479,472.000000,4.000000,,,,0.000000,4.000000,4.000000,0.000000,4.000000,4.000000,4.000000,4.000000,4.000000,4.000000,1.000000,4.000000,4.000000,4.000000,2.000000,25.000000
1602278811.712898,7.000000,0.000000,3923.589844,4657.436035,4168.717773,4260.000000,3997.948730,4620.000000,3973.333252,3896.410156,4313.846191,4027.179443,4242.563965,4154.871582,4097.436035,3970.769287,393.000000,4.000000,,,,0.000000,4.000000,4.000000,0.000000,4.000000,4.000000,4.000000,4.000000,4.000000,4.000000,1.000000,4.000000,4.000000,4.000000,2.000000,25.000000
1602278811.720719,8.000000,0.000000,3916.923096,4642.051270,4168.717773,4256.410156,3982.051270,4615.384766,3966.666748,3889.230713,4313.846191,4025.128174,4231.282227,4151.282227,4095.897461,3970.256348,413.000000,4.000000,,,,0.000000,4.000000,4.000000,0.000000,4.000000,4.000000,4.000000,4.000000,4.000000,4.000000,1.000000,4.000000,4.000000,4.000000,2.000000,25.000000
1602278811.728440,9.000000,0.000000,3913.846191,4644.102539,4169.743652,4245.641113,3981.538574,4616.410156,3967.179443,3879.487061,4307.692383,4020.000000,4229.230957,4158.461426,4096.922852,3968.205078,57.000000,4.000000,,,,0.000000,4.000000,4.000000,0.000000,4.000000,4.000000,4.000000,4.000000,4.000000,4.000000,1.000000,4.000000,4.000000,4.000000,2.000000,25.000000
1602278811.736261,10.000000,0.000000,3919.487061,4641.538574,4170.769043,4246.666504,3988.205078,4615.384766,3967.179443,3876.410156,4302.051270,4019.487061,4234.871582,4162.563965,4100.512695,3971.794922,445.000000,4.000000,,,,0.000000,4.000000,4.000000,0.000000,4.000000,4.000000,4.000000,4.000000,4.000000,4.000000,1.000000,4.000000,4.000000,4.000000,2.000000,25.000000
1602278811.743982,11.000000,0.000000,3920.000000,4629.230957,4171.282227,4250.256348,3988.205078,4611.794922,3968.205078,3884.102539,4310.256348,4021.538574,4235.897461,4158.974121,4101.025879,3972.307617,232.000000,4.000000,,,,0.000000,4.000000,4.000000,0.000000,4.000000,4.000000,4.000000,4.000000,4.000000,4.000000,1.000000,4.000000,4.000000,4.000000,2.000000,25.000000
1602278811.751802,12.000000,0.000000,3914.358887,4630.256348,4169.743652,4244.615234,3990.256348,4612.820313,3976.923096,3895.897461,4318.461426,4023.076904,4233.333496,4157.948730,4096.922852,3968.718018,425.000000,4.000000,,,,0.000000,4.000000,4.000000,0.000000,4.000000,4.000000,4.000000,4.000000,4.000000,4.000000,1.000000,4.000000,4.000000,4.000000,2.000000,25.000000
1602278811.759523,13.000000,0.000000,3914.358887,4633.333496,4164.615234,4245.641113,3991.281982,4624.102539,3983.589844,3897.948730,4316.922852,4026.153809,4234.358887,4160.512695,4093.333252,3968.205078,356.000000,4.000000,,,,0.000000,4.000000,4.000000,0.000000,4.000000,4.000000,4.000000,4.000000,4.000000,4.000000,1.000000,4.000000,4.000000,4.000000,2.000000,25.000000
1602278811.767344,14.000000,0.000000,3916.923096,4626.666504,4165.641113,4249.743652,3977.948730,4627.692383,3980.512939,3890.256348,4314.358887,4025.128174,4235.384766,4158.974121,4094.358887,3973.333252,445.000000,4.000000,,,,0.000000,4.000000,4.000000,0.000000,4.000000,4.000000,4.000000,4.000000,4.000000,4.000000,1.000000,4.000000,4.000000,4.000000,2.000000,25.000000
