title:your record name, start timestamp:1601229369.342840, stop timestamp:1601229379.423300, headset type:EPOC, headset serial:29342892, headset firmware:1e00, subject name:alzaabi.su, channels:38, sampling rate:128, samples:1290      , version:2.0
Timestamp,EEG.Counter,EEG.Interpolated,EEG.AF3,EEG.F7,EEG.F3,EEG.FC5,EEG.T7,EEG.P7,EEG.O1,EEG.O2,EEG.P8,EEG.T8,EEG.FC6,EEG.F4,EEG.F8,EEG.AF4,EEG.RawCq,EEG.Battery,MarkerIndex,MarkerType,MarkerValueInt,EEG.MarkerHardware,CQ.AF3,CQ.F7,CQ.F3,CQ.FC5,CQ.T7,CQ.P7,CQ.O1,CQ.O2,CQ.P8,CQ.T8,CQ.FC6,CQ.F4,CQ.F8,CQ.AF4,CQ.Overall
1601229369.342840,59.000000,0.000000,3923.589844,4618.974121,4169.230957,4278.974121,3992.307617,4627.179688,3973.333252,3869.230713,4313.333496,3984.615479,4197.436035,4150.769043,4081.025635,4002.564209,0.000000,4.000000,,,,0.000000,4.000000,4.000000,4.000000,4.000000,4.000000,4.000000,4.000000,4.000000,4.000000,4.000000,2.000000,4.000000,4.000000,1.000000,58.333332
1601229369.350766,60.000000,0.000000,3924.102539,4623.077148,4175.384766,4282.563965,3996.410156,4637.948730,3983.076904,3876.923096,4326.153809,3989.743652,4204.102539,4154.358887,4083.589844,4011.281982,0.000000,4.000000,,,,0.000000,4.000000,4.000000,4.000000,4.000000,4.000000,4.000000,4.000000,4.000000,4.000000,4.000000,2.000000,4.000000,4.000000,1.000000,58.333332
1601229369.358591,61.000000,0.000000,3927.692383,4623.589844,4177.948730,4287.179688,4002.564209,4639.487305,3981.538574,3882.051270,4332.820313,3995.897461,4204.615234,4153.846191,4086.666748,4009.743652,0.000000,4.000000,,,,0.000000,4.000000,4.000000,4.000000,4.000000,4.000000,4.000000,4.000000,4.000000,4.000000,4.000000,2.000000,4.000000,4.000000,1.000000,58.333332
1601229369.366516,62.000000,0.000000,3923.589844,4622.051270,4168.205078,4291.282227,4002.564209,4636.410156,3976.410156,3882.564209,4334.871582,3997.948730,4205.128418,4155.897461,4087.179443,4005.641113,0.000000,4.000000,,,,0.000000,4.000000,4.000000,4.000000,4.000000,4.000000,4.000000,4.000000,4.000000,4.000000,4.000000,2.000000,4.000000,4.000000,1.000000,58.333332
1601229369.374341,63.000000,0.000000,3915.384521,4622.563965,4160.512695,4285.641113,4001.538574,4638.461426,3980.512939,3881.538574,4334.871582,3994.358887,4208.205078,4157.436035,4086.666748,4008.718018,0.000000,4.000000,,,,0.000000,4.000000,4.000000,4.000000,4.000000,4.000000,4.000000,4.000000,4.000000,4.000000,4.000000,2.000000,4.000000,4.000000,1.000000,58.333332
1601229369.382265,64.000000,0.000000,3914.871826,4622.563965,4163.589844,4277.948730,3999.487061,4637.436035,3983.589844,3878.461426,4327.692383,3988.205078,4203.589844,4154.358887,4089.230713,4010.256348,378.000000,4.000000,,,,0.000000,4.000000,4.000000,4.000000,4.000000,4.000000,4.000000,4.000000,4.000000,4.000000,4.000000,2.000000,4.000000,4.000000,1.000000,58.333332
1601229369.390090,65.000000,0.000000,3917.435791,4620.000000,4167.692383,4282.051270,3998.461426,4633.846191,3982.051270,3873.846191,4322.051270,3984.615479,4196.922852,4149.743652,4082.051270,4008.205078,431.000000,4.000000,,,,0.000000,4.000000,4.000000,4.000000,4.000000,4.000000,4.000000,4.000000,4.000000,4.000000,4.000000,2.000000,4.000000,4.000000,1.000000,58.333332
1601229369.397815,66.000000,0.000000,3916.410156,4620.512695,4165.128418,4283.077148,4002.564209,4634.358887,3977.948730,3867.692383,4320.512695,3978.461426,4191.794922,4145.128418,4067.692383,4005.641113,386.000000,4.000000,,,,0.000000,4.000000,4.000000,4.000000,4.000000,4.000000,4.000000,4.000000,4.000000,4.000000,4.000000,2.000000,4.000000,4.000000,1.000000,58.333332
1601229369.405639,67.000000,0.000000,3918.974365,4623.077148,4163.077148,4278.974121,4009.230713,4631.282227,3974.358887,3864.615479,4315.897461,3972.307617,4190.256348,4141.025879,4069.230713,4001.538574,433.000000,4.000000,,,,0.000000,4.000000,4.000000,4.000000,4.000000,4.000000,4.000000,4.000000,4.000000,4.000000,4.000000,2.000000,4.000000,4.000000,1.000000,58.333332
1601229369.413364,68.000000,0.000000,3921.025635,4623.589844,4167.179688,4278.461426,4000.000000,4624.102539,3976.410156,3865.641113,4308.717773,3972.307617,4193.333496,4143.589844,4074.871826,4004.615479,459.000000,4.000000,,,,0.000000,4.000000,4.000000,4.000000,4.000000,4.000000,4.000000,4.000000,4.000000,4.000000,4.000000,2.000000,4.000000,4.000000,1.000000,58.333332
1601229369.421188,69.000000,0.000000,3921.025635,4626.666504,4168.717773,4281.538574,3986.153809,4623.589844,3976.923096,3871.794922,4312.307617,3977.435791,4199.487305,4148.205078,4072.307617,4011.281982,435.000000,4.000000,,,,0.000000,4.000000,4.000000,4.000000,4.000000,4.000000,4.000000,4.000000,4.000000,4.000000,4.000000,2.000000,4.000000,4.000000,1.000000,58.333332
1601229369.428913,70.000000,0.000000,3921.538574,4624.615234,4166.153809,4278.974121,3989.230713,4626.666504,3967.692383,3875.384521,4321.025879,3980.000000,4197.436035,4150.256348,4072.307617,4012.820557,448.000000,4.000000,,,,0.000000,4.000000,4.000000,4.000000,4.000000,4.000000,4.000000,4.000000,4.000000,4.000000,4.000000,2.000000,4.000000,4.000000,1.000000,58.333332
1601229369.436737,71.000000,0.000000,3922.564209,4621.025879,4168.717773,4279.487305,3998.461426,4634.358887,3971.794922,3873.846191,4329.230957,3983.589844,4196.922852,4153.846191,4081.538574,4008.718018,355.000000,4.000000,,,,0.000000,4.000000,4.000000,4.000000,4.000000,4.000000,4.000000,4.000000,4.000000,4.000000,4.000000,2.000000,4.000000,4.000000,1.000000,58.333332
1601229369.444462,72.000000,0.000000,3925.128174,4627.179688,4174.871582,4284.615234,3999.487061,4640.000000,3985.641113,3876.923096,4335.384766,3994.358887,4206.153809,4160.000000,4090.769287,4013.846191,409.000000,4.000000,,,,0.000000,4.000000,4.000000,4.000000,4.000000,4.000000,4.000000,4.000000,4.000000,4.000000,4.000000,2.000000,4.000000,4.000000,1.000000,58.333332
1601229369.452286,73.000000,0.000000,3931.794922,4631.282227,4178.461426,4286.666504,4001.025635,4634.358887,3982.564209,3882.564209,4337.436035,4004.615479,4214.358887,4165.128418,4098.461426,4028.718018,408.000000,4.000000,,,,0.000000,4.000000,4.000000,4.000000,4.000000,4.000000,4.000000,4.000000,4.000000,4.000000,4.000000,2.000000,4.000000,4.000000,1.000000,58.333332
1601229369.460010,74.000000,0.000000,3934.871826,4625.128418,4176.410156,4285.128418,4000.000000,4623.077148,3971.281982,3878.461426,4333.846191,4001.025635,4215.384766,4162.051270,4100.512695,4041.538574,426.000000,4.000000,,,,0.000000,4.000000,4.000000,4.000000,4.000000,4.000000,4.000000,4.000000,4.000000,4.000000,4.000000,2.000000,4.000000,4.000000,1.000000,58.333332
1601229369.467833,75.000000,0.000000,3931.281982,4627.692383,4173.846191,4285.641113,3998.974365,4626.153809,3977.948730,3874.358887,4332.307617,3998.461426,4214.871582,4155.897461,4098.974121,4033.333252,44.000000,4.000000,,,,0.000000,4.000000,4.000000,4.000000,4.000000,4.000000,4.000000,4.000000,4.000000,4.000000,4.000000,2.000000,4.000000,4.000000,1.000000,58.333332
1601229369.475557,76.000000,0.000000,3930.256348,4631.282227,4176.922852,4283.589844,4003.589844,4634.358887,3989.230713,3878.461426,4335.384766,4004.615479,4214.358887,4156.922852,4097.948730,4018.974365,242.000000,4.000000,,,,0.000000,4.000000,4.000000,4.000000,4.000000,4.000000,4.000000,4.000000,4.000000,4.000000,4.000000,2.000000,4.000000,4.000000,1.000000,58.333332
1601229369.483380,77.000000,0.000000,3932.820557,4629.743652,4179.487305,4280.000000,4002.564209,4637.436035,3990.256348,3885.641113,4340.000000,4006.666748,4215.384766,4164.615234,4097.436035,4014.358887,349.000000,4.000000,,,,0.000000,4.000000,4.000000,4.000000,4.000000,4.000000,4.000000,4.000000,4.000000,4.000000,4.000000,2.000000,4.000000,4.000000,1.000000,58.333332
1601229369.491104,78.000000,0.000000,3935.384521,4634.358887,4180.000000,4282.563965,3999.487061,4643.077148,3989.743652,3889.230713,4342.563965,4010.256348,4217.948730,4167.692383,4097.436035,4014.358887,426.000000,4.000000,,,,0.000000,4.000000,4.000000,4.000000,4.000000,4.000000,4.000000,4.000000,4.000000,4.000000,4.000000,2.000000,4.000000,4.000000,1.000000,58.333332
1601229369.499030,79.000000,0.000000,3935.384521,4633.846191,4180.000000,4286.153809,4005.128174,4644.102539,3988.718018,3885.128174,4338.974121,4012.307617,4215.897461,4162.051270,4097.436035,4008.718018,44.000000,4.000000,,,,0.000000,4.000000,4.000000,4.000000,4.000000,4.000000,4.000000,4.000000,4.000000,4.000000,4.000000,2.000000,4.000000,4.000000,1.000000,58.333332
1601229369.506856,80.000000,0.000000,3926.153809,4623.589844,4171.794922,4280.512695,4006.153809,4633.333496,3984.615479,3877.435791,4327.179688,3998.461426,4206.666504,4153.846191,4088.205078,4005.641113,242.000000,4.000000,,,,0.000000,4.000000,4.000000,4.000000,4.000000,4.000000,4.000000,4.000000,4.000000,4.000000,4.000000,2.000000,4.000000,4.000000,1.000000,58.333332
1601229369.514781,81.000000,0.000000,3914.871826,4620.512695,4159.487305,4272.820313,3997.435791,4626.666504,3978.974365,3875.897461,4317.436035,3983.076904,4199.487305,4145.641113,4075.384521,4005.641113,349.000000,4.000000,,,,0.000000,4.000000,4.000000,4.000000,4.000000,4.000000,4.000000,4.000000,4.000000,4.000000,4.000000,2.000000,4.000000,4.000000,1.000000,58.333332
1601229369.522606,82.000000,0.000000,3918.461426,4626.666504,4158.461426,4276.922852,3998.974365,4631.282227,3977.435791,3882.051270,4326.666504,3994.871826,4207.179688,4147.692383,4083.589844,4005.641113,426.000000,4.000000,,,,0.000000,4.000000,4.000000,4.000000,4.000000,4.000000,4.000000,4.000000,4.000000,4.000000,4.000000,2.000000,4.000000,4.000000,1.000000,58.333332
1601229369.530531,83.000000,0.000000,3932.307617,4631.794922,4169.743652,4286.153809,4010.769287,4636.922852,3983.076904,3887.179443,4344.102539,4012.307617,4220.512695,4163.077148,4106.666504,4013.333252,44.000000,4.000000,,,,0.000000,4.000000,4.000000,4.000000,4.000000,4.000000,4.000000,4.000000,4.000000,4.000000,4.000000,2.000000,4.000000,4.000000,1.000000,58.333332
1601229369.538357,84.000000,0.000000,3933.333252,4633.333496,4174.871582,4288.717773,4012.307617,4639.487305,3988.205078,3885.128174,4344.102539,4010.256348,4221.025879,4170.256348,4108.205078,4016.410156,242.000000,4.000000,,,,0.000000,4.000000,4.000000,4.000000,4.000000,4.000000,4.000000,4.000000,4.000000,4.000000,4.000000,2.000000,4.000000,4.000000,1.000000,58.333332
1601229369.546282,85.000000,0.000000,3928.205078,4633.333496,4174.358887,4283.077148,4002.564209,4640.000000,3984.615479,3881.025635,4334.358887,4004.102539,4213.846191,4162.051270,4091.794922,4007.179443,349.000000,4.000000,,,,0.000000,4.000000,4.000000,4.000000,4.000000,4.000000,4.000000,4.000000,4.000000,4.000000,4.000000,2.000000,4.000000,4.000000,1.000000,58.333332
1601229369.554107,86.000000,0.000000,3934.358887,4632.820313,4177.436035,4281.538574,4001.025635,4638.974121,3984.615479,3882.564209,4333.333496,4007.692383,4214.871582,4158.974121,4091.794922,4002.051270,426.000000,4.000000,,,,0.000000,4.000000,4.000000,4.000000,4.000000,4.000000,4.000000,4.000000,4.000000,4.000000,4.000000,2.000000,4.000000,4.000000,1.000000,58.333332
1601229369.562032,87.000000,0.000000,3936.410156,4624.615234,4178.461426,4282.051270,4002.051270,4630.769043,3982.564209,3881.025635,4328.205078,4005.641113,4213.333496,4163.077148,4095.897461,4006.153809,44.000000,4.000000,,,,0.000000,4.000000,4.000000,4.000000,4.000000,4.000000,4.000000,4.000000,4.000000,4.000000,4.000000,2.000000,4.000000,4.000000,1.000000,58.333332
1601229369.569856,88.000000,0.000000,3929.230713,4620.000000,4176.410156,4281.025879,4000.512939,4629.230957,3978.974365,3880.000000,4326.153809,4008.205078,4211.282227,4164.102539,4095.384521,4002.051270,242.000000,4.000000,,,,0.000000,4.000000,4.000000,4.000000,4.000000,4.000000,4.000000,4.000000,4.000000,4.000000,4.000000,2.000000,4.000000,4.000000,1.000000,58.333332
1601229369.577681,89.000000,0.000000,3930.769287,4627.179688,4175.384766,4278.461426,3998.461426,4636.922852,3979.487061,3881.025635,4334.358887,4016.410156,4215.897461,4164.615234,4100.512695,4001.025635,349.000000,4.000000,,,,0.000000,4.000000,4.000000,4.000000,4.000000,4.000000,4.000000,4.000000,4.000000,4.000000,4.000000,2.000000,4.000000,4.000000,1.000000,58.333332
1601229369.585506,90.000000,0.000000,3941.025635,4632.820313,4177.436035,4285.128418,3998.461426,4638.461426,3984.102539,3882.564209,4337.436035,4017.435791,4222.051270,4167.179688,4109.743652,4007.179443,426.000000,4.000000,,,,0.000000,4.000000,4.000000,4.000000,4.000000,4.000000,4.000000,4.000000,4.000000,4.000000,4.000000,2.000000,4.000000,4.000000,1.000000,58.333332
1601229369.593230,91.000000,0.000000,3941.538574,4627.692383,4175.384766,4287.692383,3995.897461,4632.307617,3980.512939,3881.025635,4330.256348,4012.307617,4221.538574,4166.666504,4103.589844,4008.205078,44.000000,4.000000,,,,0.000000,4.000000,4.000000,4.000000,4.000000,4.000000,4.000000,4.000000,4.000000,4.000000,4.000000,2.000000,4.000000,4.000000,1.000000,58.333332
1601229369.601054,92.000000,0.000000,3935.897461,4626.153809,4173.333496,4277.436035,3996.923096,4631.794922,3975.384521,3877.435791,4324.102539,4006.153809,4214.358887,4162.563965,4088.205078,4002.564209,242.000000,4.000000,,,,0.000000,4.000000,4.000000,4.000000,4.000000,4.000000,4.000000,4.000000,4.000000,4.000000,4.000000,2.000000,4.000000,4.000000,1.000000,58.333332
1601229369.608779,93.000000,0.000000,3933.846191,4625.128418,4172.307617,4272.820313,3994.871826,4631.794922,3975.384521,3874.358887,4321.538574,3998.974365,4206.666504,4158.461426,4084.102539,4004.102539,349.000000,4.000000,,,,0.000000,4.000000,4.000000,4.000000,4.000000,4.000000,4.000000,4.000000,4.000000,4.000000,4.000000,2.000000,4.000000,4.000000,1.000000,58.333332
1601229369.616602,94.000000,0.000000,3931.794922,4622.563965,4170.769043,4278.461426,3991.794922,4629.230957,3978.461426,3874.871826,4321.025879,3995.384521,4207.179688,4158.461426,4091.794922,4007.692383,426.000000,4.000000,,,,0.000000,4.000000,4.000000,4.000000,4.000000,4.000000,4.000000,4.000000,4.000000,4.000000,4.000000,2.000000,4.000000,4.000000,1.000000,58.333332
1601229369.624327,95.000000,0.000000,3930.769287,4629.230957,4171.794922,4278.461426,4002.051270,4627.179688,3982.051270,3876.410156,4321.025879,3998.461426,4210.256348,4158.461426,4094.871826,4003.076904,44.000000,4.000000,,,,0.000000,4.000000,4.000000,4.000000,4.000000,4.000000,4.000000,4.000000,4.000000,4.000000,4.000000,2.000000,4.000000,4.000000,1.000000,58.333332
1601229369.632150,96.000000,0.000000,3935.384521,4635.384766,4176.410156,4275.384766,4008.205078,4628.205078,3978.974365,3877.435791,4323.077148,4003.076904,4208.717773,4160.000000,4093.333252,4000.512939,242.000000,4.000000,,,,0.000000,4.000000,4.000000,4.000000,4.000000,4.000000,4.000000,4.000000,4.000000,4.000000,4.000000,2.000000,4.000000,4.000000,1.000000,58.333332
1601229369.639874,97.000000,0.000000,3940.000000,4631.282227,4178.461426,4281.538574,4001.538574,4632.820313,3975.384521,3884.102539,4327.179688,4008.205078,4213.846191,4163.589844,4096.922852,4008.718018,349.000000,4.000000,,,,0.000000,4.000000,4.000000,4.000000,4.000000,4.000000,4.000000,4.000000,4.000000,4.000000,4.000000,2.000000,4.000000,4.000000,1.000000,58.333332
1601229369.647698,98.000000,0.000000,3937.948730,4630.769043,4177.436035,4288.717773,4000.512939,4636.922852,3981.025635,3888.205078,4327.692383,4009.743652,4218.461426,4166.153809,4096.922852,4015.384521,426.000000,4.000000,,,,0.000000,4.000000,4.000000,4.000000,4.000000,4.000000,4.000000,4.000000,4.000000,4.000000,4.000000,2.000000,4.000000,4.000000,1.000000,58.333332
1601229369.655422,99.000000,0.000000,3936.410156,4638.974121,4175.897461,4288.205078,4004.615479,4640.000000,3989.230713,3888.718018,4331.794922,4011.281982,4215.897461,4165.641113,4097.436035,4010.256348,44.000000,4.000000,,,,0.000000,4.000000,4.000000,4.000000,4.000000,4.000000,4.000000,4.000000,4.000000,4.000000,4.000000,2.000000,4.000000,4.000000,1.000000,58.333332
1601229369.663245,100.000000,0.000000,3936.410156,4636.410156,4175.897461,4278.974121,4002.051270,4643.077148,3989.743652,3889.743652,4337.436035,4017.948730,4216.410156,4164.615234,4103.589844,4004.615479,242.000000,4.000000,,,,0.000000,4.000000,4.000000,4.000000,4.000000,4.000000,4.000000,4.000000,4.000000,4.000000,4.000000,2.000000,4.000000,4.000000,1.000000,58.333332
1601229369.670968,101.000000,0.000000,3936.923096,4622.051270,4178.461426,4273.333496,4000.512939,4643.077148,3990.769287,3887.692383,4337.436035,4019.487061,4218.461426,4164.102539,4101.538574,4007.179443,349.000000,4.000000,,,,0.000000,4.000000,4.000000,4.000000,4.000000,4.000000,4.000000,4.000000,4.000000,4.000000,4.000000,2.000000,4.000000,4.000000,1.000000,58.333332
1601229369.678894,102.000000,0.000000,3937.435791,4618.461426,4180.512695,4277.436035,3999.487061,4635.384766,3987.692383,3880.000000,4330.256348,4007.692383,4210.256348,4164.102539,4090.256348,4008.718018,426.000000,4.000000,,,,0.000000,4.000000,4.000000,4.000000,4.000000,4.000000,4.000000,4.000000,4.000000,4.000000,4.000000,2.000000,4.000000,4.000000,1.000000,58.333332
1601229369.686719,103.000000,0.000000,3931.281982,4622.051270,4175.384766,4279.487305,3995.384521,4631.794922,3977.948730,3873.333252,4324.615234,3999.487061,4205.128418,4163.077148,4085.128174,4001.538574,44.000000,4.000000,,,,0.000000,4.000000,4.000000,4.000000,4.000000,4.000000,4.000000,4.000000,4.000000,4.000000,4.000000,2.000000,4.000000,4.000000,1.000000,58.333332
1601229369.694645,104.000000,0.000000,3923.076904,4615.384766,4165.641113,4273.333496,3993.846191,4631.794922,3972.307617,3873.846191,4322.563965,3998.461426,4208.205078,4158.461426,4086.153809,4001.538574,242.000000,4.000000,,,,0.000000,4.000000,4.000000,4.000000,4.000000,4.000000,4.000000,4.000000,4.000000,4.000000,4.000000,2.000000,4.000000,4.000000,1.000000,58.333332
1601229369.702470,105.000000,0.000000,3928.718018,4615.384766,4169.230957,4274.358887,3995.897461,4633.333496,3976.410156,3877.948730,4323.077148,4004.102539,4210.256348,4163.077148,4089.230713,4003.589844,349.000000,4.000000,,,,0.000000,4.000000,4.000000,4.000000,4.000000,4.000000,4.000000,4.000000,4.000000,4.000000,4.000000,2.000000,4.000000,4.000000,1.000000,58.333332
1601229369.710395,106.000000,0.000000,3936.410156,4624.102539,4177.948730,4275.384766,3995.897461,4634.358887,3978.461426,3873.333252,4315.384766,4003.589844,4206.666504,4163.077148,4085.128174,4004.102539,426.000000,4.000000,,,,0.000000,4.000000,4.000000,4.000000,4.000000,4.000000,4.000000,4.000000,4.000000,4.000000,4.000000,2.000000,4.000000,4.000000,1.000000,58.333332
1601229369.718220,107.000000,0.000000,3930.769287,4627.692383,4171.282227,4273.333496,4000.512939,4636.410156,3979.487061,3870.256348,4310.769043,3994.358887,4200.000000,4151.282227,4074.358887,4008.718018,44.000000,4.000000,,,,0.000000,4.000000,4.000000,4.000000,4.000000,4.000000,4.000000,4.000000,4.000000,4.000000,4.000000,2.000000,4.000000,4.000000,1.000000,58.333332
1601229369.726145,108.000000,0.000000,3925.128174,4630.256348,4163.077148,4278.974121,4003.589844,4639.487305,3982.051270,3879.487061,4321.538574,3992.307617,4198.974121,4150.256348,4072.820557,4020.000000,242.000000,4.000000,,,,0.000000,4.000000,4.000000,4.000000,4.000000,4.000000,4.000000,4.000000,4.000000,4.000000,4.000000,2.000000,4.000000,4.000000,1.000000,58.333332
1601229369.733970,109.000000,0.000000,3927.692383,4634.358887,4165.128418,4285.128418,4001.025635,4641.025879,3986.153809,3885.641113,4329.743652,4000.000000,4203.077148,4155.897461,4077.948730,4020.512939,349.000000,4.000000,,,,0.000000,4.000000,4.000000,4.000000,4.000000,4.000000,4.000000,4.000000,4.000000,4.000000,4.000000,2.000000,4.000000,4.000000,1.000000,58.333332
1601229369.741895,110.000000,0.000000,3930.769287,4624.615234,4168.717773,4273.846191,3996.923096,4638.461426,3989.743652,3877.435791,4324.102539,4003.076904,4200.512695,4153.333496,4076.410156,4013.333252,426.000000,4.000000,,,,0.000000,4.000000,4.000000,4.000000,4.000000,4.000000,4.000000,4.000000,4.000000,4.000000,4.000000,2.000000,4.000000,4.000000,1.000000,58.333332
1601229369.749719,111.000000,0.000000,3932.820557,4621.025879,4172.307617,4268.205078,3996.923096,4635.897461,3984.615479,3874.871826,4320.000000,4002.051270,4200.512695,4156.410156,4080.000000,4009.230713,44.000000,4.000000,,,,0.000000,4.000000,4.000000,4.000000,4.000000,4.000000,4.000000,4.000000,4.000000,4.000000,4.000000,2.000000,4.000000,4.000000,1.000000,58.333332
1601229369.757644,112.000000,0.000000,3934.871826,4636.410156,4174.358887,4283.077148,4004.615479,4636.922852,3975.897461,3880.000000,4325.128418,4005.641113,4210.256348,4166.153809,4090.769287,4004.615479,242.000000,4.000000,,,,0.000000,4.000000,4.000000,4.000000,4.000000,4.000000,4.000000,4.000000,4.000000,4.000000,4.000000,2.000000,4.000000,4.000000,1.000000,58.333332
1601229369.765468,113.000000,0.000000,3933.333252,4638.974121,4170.769043,4282.051270,4004.615479,4634.871582,3976.923096,3877.948730,4324.615234,4005.128174,4211.282227,4165.128418,4087.692383,4000.000000,349.000000,4.000000,,,,0.000000,4.000000,4.000000,4.000000,4.000000,4.000000,4.000000,4.000000,4.000000,4.000000,4.000000,2.000000,4.000000,4.000000,1.000000,58.333332
1601229369.773193,114.000000,0.000000,3931.794922,4632.820313,4169.743652,4272.820313,3994.358887,4633.333496,3983.076904,3875.384521,4323.077148,4007.179443,4205.128418,4162.563965,4082.564209,4001.025635,426.000000,4.000000,,,,0.000000,4.000000,4.000000,4.000000,4.000000,4.000000,4.000000,4.000000,4.000000,4.000000,4.000000,2.000000,4.000000,4.000000,1.000000,58.333332
1601229369.781018,115.000000,0.000000,3933.333252,4636.410156,4174.358887,4279.487305,3996.410156,4638.461426,3982.564209,3878.461426,4328.717773,4017.435791,4207.692383,4166.153809,4088.205078,4002.051270,44.000000,4.000000,,,,0.000000,4.000000,4.000000,4.000000,4.000000,4.000000,4.000000,4.000000,4.000000,4.000000,4.000000,2.000000,4.000000,4.000000,1.000000,58.333332
1601229369.788743,116.000000,0.000000,3932.820557,4632.820313,4171.794922,4281.538574,4005.641113,4639.487305,3978.461426,3877.435791,4329.230957,4016.410156,4212.307617,4163.077148,4089.743652,4000.512939,242.000000,4.000000,,,,0.000000,4.000000,4.000000,4.000000,4.000000,4.000000,4.000000,4.000000,4.000000,4.000000,4.000000,2.000000,4.000000,4.000000,1.000000,58.333332
1601229369.796567,117.000000,0.000000,3934.358887,4623.077148,4168.717773,4271.282227,3997.948730,4634.358887,3976.410156,3876.410156,4325.641113,4006.666748,4209.230957,4160.512695,4085.128174,4003.076904,349.000000,4.000000,,,,0.000000,4.000000,4.000000,4.000000,4.000000,4.000000,4.000000,4.000000,4.000000,4.000000,4.000000,2.000000,4.000000,4.000000,1.000000,58.333332
1601229369.804294,118.000000,0.000000,3934.358887,4627.692383,4173.846191,4272.307617,3991.794922,4633.333496,3975.897461,3881.025635,4330.256348,4008.718018,4209.230957,4162.051270,4087.692383,4004.102539,426.000000,4.000000,,,,0.000000,4.000000,4.000000,4.000000,4.000000,4.000000,4.000000,4.000000,4.000000,4.000000,4.000000,2.000000,4.000000,4.000000,1.000000,58.333332
1601229369.812120,119.000000,0.000000,3927.692383,4632.820313,4171.282227,4274.358887,3994.871826,4626.666504,3970.769287,3875.384521,4323.589844,4008.205078,4210.256348,4162.563965,4085.641113,4001.538574,44.000000,4.000000,,,,0.000000,4.000000,4.000000,4.000000,4.000000,4.000000,4.000000,4.000000,4.000000,4.000000,4.000000,2.000000,4.000000,4.000000,1.000000,58.333332
1601229369.819946,120.000000,0.000000,3922.051270,4625.128418,4162.051270,4268.205078,3990.256348,4616.922852,3962.564209,3863.076904,4307.692383,4000.000000,4204.102539,4159.487305,4076.923096,3997.948730,242.000000,4.000000,,,,0.000000,4.000000,4.000000,4.000000,4.000000,4.000000,4.000000,4.000000,4.000000,4.000000,4.000000,2.000000,4.000000,4.000000,1.000000,58.333332
1601229369.827668,121.000000,0.000000,3923.589844,4620.512695,4161.025879,4270.256348,3986.666748,4623.077148,3962.564209,3863.589844,4305.641113,3996.410156,4198.974121,4153.846191,4071.281982,3999.487061,349.000000,4.000000,,,,0.000000,4.000000,4.000000,4.000000,4.000000,4.000000,4.000000,4.000000,4.000000,4.000000,4.000000,2.000000,4.000000,4.000000,1.000000,58.333332
1601229369.835391,122.000000,0.000000,3923.076904,4626.153809,4165.128418,4274.358887,3992.307617,4637.948730,3975.384521,3874.358887,4314.358887,3996.410156,4199.487305,4151.282227,4066.666748,3998.461426,426.000000,4.000000,,,,0.000000,4.000000,4.000000,4.000000,4.000000,4.000000,4.000000,4.000000,4.000000,4.000000,4.000000,2.000000,4.000000,4.000000,1.000000,58.333332
1601229369.843215,123.000000,0.000000,3921.538574,4626.153809,4165.641113,4268.205078,3990.769287,4640.000000,3983.076904,3880.000000,4317.436035,3993.333252,4197.948730,4155.384766,4062.564209,3996.410156,44.000000,4.000000,,,,0.000000,4.000000,4.000000,4.000000,4.000000,4.000000,4.000000,4.000000,4.000000,4.000000,4.000000,2.000000,4.000000,4.000000,1.000000,58.333332
1601229369.850938,124.000000,0.000000,3928.205078,4623.077148,4168.717773,4268.205078,3989.230713,4638.461426,3984.102539,3884.615479,4325.128418,4000.512939,4195.384766,4162.563965,4069.743652,3996.923096,242.000000,4.000000,,,,0.000000,4.000000,4.000000,4.000000,4.000000,4.000000,4.000000,4.000000,4.000000,4.000000,4.000000,2.000000,4.000000,4.000000,1.000000,58.333332
1601229369.858864,125.000000,0.000000,3933.846191,4628.717773,4172.820313,4275.897461,3995.897461,4638.974121,3986.153809,3892.820557,4334.871582,4021.025635,4203.077148,4163.589844,4083.076904,3998.974365,349.000000,4.000000,,,,0.000000,4.000000,4.000000,4.000000,4.000000,4.000000,4.000000,4.000000,4.000000,4.000000,4.000000,2.000000,4.000000,4.000000,1.000000,58.333332
1601229369.866689,126.000000,0.000000,3934.871826,4645.641113,4175.897461,4281.025879,4002.051270,4640.000000,3989.743652,3898.974365,4341.538574,4035.897461,4213.846191,4162.051270,4094.358887,3998.461426,426.000000,4.000000,,,,0.000000,4.000000,4.000000,4.000000,4.000000,4.000000,4.000000,4.000000,4.000000,4.000000,4.000000,2.000000,4.000000,4.000000,1.000000,58.333332
1601229369.874615,127.000000,0.000000,3926.153809,4645.641113,4170.769043,4273.333496,3998.974365,4632.820313,3983.589844,3893.333252,4337.948730,4032.307617,4211.282227,4157.436035,4088.718018,3999.487061,44.000000,4.000000,,,,0.000000,4.000000,4.000000,4.000000,4.000000,4.000000,4.000000,4.000000,4.000000,4.000000,4.000000,2.000000,4.000000,4.000000,1.000000,58.333332
1601229369.882440,128.000000,0.000000,3914.871826,4624.102539,4161.025879,4259.487305,3991.794922,4623.077148,3975.384521,3877.948730,4322.051270,4018.974365,4202.051270,4146.666504,4073.333252,3997.948730,242.000000,4.000000,,,,0.000000,4.000000,4.000000,4.000000,4.000000,4.000000,4.000000,4.000000,4.000000,4.000000,4.000000,2.000000,4.000000,4.000000,1.000000,58.333332
1601229369.890365,0.000000,0.000000,3916.410156,4614.358887,4162.051270,4258.974121,3990.256348,4629.230957,3978.974365,3874.871826,4318.974121,4020.512939,4204.102539,4148.717773,4081.538574,3992.307617,378.000000,4.000000,,,,0.000000,4.000000,4.000000,4.000000,4.000000,4.000000,4.000000,4.000000,4.000000,4.000000,4.000000,2.000000,4.000000,4.000000,1.000000,58.333332
1601229369.898190,1.000000,0.000000,3925.128174,4624.102539,4168.205078,4269.230957,3993.333252,4638.974121,3983.589844,3880.000000,4325.128418,4028.718018,4210.769043,4161.538574,4094.871826,3993.333252,432.000000,4.000000,,,,0.000000,4.000000,4.000000,4.000000,4.000000,4.000000,4.000000,4.000000,4.000000,4.000000,4.000000,2.000000,4.000000,4.000000,1.000000,58.333332
1601229369.906115,2.000000,0.000000,3925.128174,4629.743652,4165.641113,4270.769043,3993.333252,4637.436035,3982.051270,3878.974365,4321.025879,4028.205078,4206.666504,4166.153809,4084.102539,3997.948730,386.000000,4.000000,,,,0.000000,4.000000,4.000000,4.000000,4.000000,4.000000,4.000000,4.000000,4.000000,4.000000,4.000000,2.000000,4.000000,4.000000,1.000000,58.333332
1601229369.913940,3.000000,0.000000,3924.102539,4621.025879,4165.128418,4261.025879,3988.718018,4630.256348,3974.358887,3876.410156,4313.846191,4025.128174,4202.051270,4160.512695,4072.307617,3997.435791,432.000000,4.000000,,,,0.000000,4.000000,4.000000,4.000000,4.000000,4.000000,4.000000,4.000000,4.000000,4.000000,4.000000,2.000000,4.000000,4.000000,1.000000,58.333332
1601229369.921865,4.000000,0.000000,3931.794922,4624.615234,4170.769043,4268.717773,3995.897461,4633.846191,3971.281982,3878.461426,4320.000000,4032.307617,4211.794922,4163.077148,4086.666748,3996.410156,455.000000,4.000000,,,,0.000000,4.000000,4.000000,4.000000,4.000000,4.000000,4.000000,4.000000,4.000000,4.000000,4.000000,2.000000,4.000000,4.000000,1.000000,58.333332
1601229369.929689,5.000000,0.000000,3936.923096,4640.000000,4173.333496,4283.589844,4003.589844,4638.974121,3975.897461,3877.435791,4325.128418,4040.512939,4220.512695,4172.820313,4097.948730,4001.538574,433.000000,4.000000,,,,0.000000,4.000000,4.000000,4.000000,4.000000,4.000000,4.000000,4.000000,4.000000,4.000000,4.000000,2.000000,4.000000,4.000000,1.000000,58.333332
1601229369.937614,6.000000,0.000000,3932.307617,4645.128418,4171.282227,4281.025879,3997.948730,4638.461426,3976.923096,3874.358887,4322.051270,4039.487061,4215.384766,4172.307617,4087.692383,4001.025635,448.000000,4.000000,,,,0.000000,4.000000,4.000000,4.000000,4.000000,4.000000,4.000000,4.000000,4.000000,4.000000,4.000000,2.000000,4.000000,4.000000,1.000000,58.333332
1601229369.945438,7.000000,0.000000,3923.589844,4636.410156,4167.179688,4267.179688,3986.666748,4631.282227,3966.153809,3873.333252,4316.410156,4032.307617,4205.128418,4160.512695,4073.333252,3995.897461,355.000000,4.000000,,,,0.000000,4.000000,4.000000,4.000000,4.000000,4.000000,4.000000,4.000000,4.000000,4.000000,4.000000,2.000000,4.000000,4.000000,1.000000,58.333332
1601229369.953162,8.000000,0.000000,3926.153809,4631.282227,4169.743652,4265.641113,3991.794922,4629.743652,3965.641113,3875.897461,4317.436035,4033.846191,4206.666504,4160.000000,4083.076904,3993.846191,406.000000,4.000000,,,,0.000000,4.000000,4.000000,4.000000,4.000000,4.000000,4.000000,4.000000,4.000000,4.000000,4.000000,2.000000,4.000000,4.000000,1.000000,58.333332
1601229369.960987,9.000000,0.000000,3936.410156,4636.922852,4177.436035,4273.333496,4002.051270,4637.436035,3980.000000,3880.000000,4327.179688,4045.128174,4215.897461,4172.820313,4103.077148,3998.461426,405.000000,4.000000,,,,0.000000,4.000000,4.000000,4.000000,4.000000,4.000000,4.000000,4.000000,4.000000,4.000000,4.000000,2.000000,4.000000,4.000000,1.000000,58.333332
1601229369.968711,10.000000,0.000000,3935.384521,4644.102539,4177.436035,4277.948730,4002.051270,4639.487305,3982.051270,3882.051270,4331.282227,4050.769287,4217.948730,4171.794922,4096.922852,4000.000000,429.000000,4.000000,,,,0.000000,4.000000,4.000000,4.000000,4.000000,4.000000,4.000000,4.000000,4.000000,4.000000,4.000000,2.000000,4.000000,4.000000,1.000000,58.333332
1601229369.976536,11.000000,0.000000,3925.641113,4641.538574,4167.179688,4275.384766,3993.846191,4630.769043,3972.820557,3878.974365,4325.641113,4044.615479,4212.307617,4160.000000,4079.487061,3996.923096,46.000000,4.000000,,,,0.000000,4.000000,4.000000,4.000000,4.000000,4.000000,4.000000,4.000000,4.000000,4.000000,4.000000,2.000000,4.000000,4.000000,1.000000,58.333332
1601229369.984260,12.000000,0.000000,3917.948730,4628.205078,4160.512695,4268.205078,3987.692383,4625.128418,3970.256348,3876.410156,4319.487305,4038.461426,4209.230957,4155.897461,4083.589844,3990.769287,242.000000,4.000000,,,,0.000000,4.000000,4.000000,4.000000,4.000000,4.000000,4.000000,4.000000,4.000000,4.000000,4.000000,2.000000,4.000000,4.000000,1.000000,58.333332
1601229369.992084,13.000000,0.000000,3913.846191,4623.589844,4158.974121,4266.666504,3992.307617,4631.794922,3974.358887,3875.897461,4314.871582,4033.846191,4209.743652,4156.922852,4087.692383,3996.923096,349.000000,4.000000,,,,0.000000,4.000000,4.000000,4.000000,4.000000,4.000000,4.000000,4.000000,4.000000,4.000000,4.000000,2.000000,4.000000,4.000000,1.000000,58.333332
1601229369.999808,14.000000,0.000000,3915.897461,4631.794922,4159.487305,4268.717773,3997.435791,4636.922852,3976.410156,3878.974365,4314.871582,4029.230713,4209.230957,4157.436035,4077.435791,4017.948730,429.000000,4.000000,,,,0.000000,4.000000,4.000000,4.000000,4.000000,4.000000,4.000000,4.000000,4.000000,4.000000,4.000000,2.000000,4.000000,4.000000,1.000000,58.333332
1601229370.007632,15.000000,0.000000,3916.923096,4628.717773,4161.025879,4266.666504,3991.794922,4627.692383,3969.230713,3877.435791,4310.769043,4022.564209,4203.077148,4157.948730,4068.205078,4029.230713,46.000000,4.000000,,,,0.000000,4.000000,4.000000,4.000000,4.000000,4.000000,4.000000,4.000000,4.000000,4.000000,4.000000,2.000000,4.000000,4.000000,1.000000,58.333332
1601229370.015356,16.000000,0.000000,3915.384521,4622.051270,4164.615234,4271.282227,3989.743652,4622.563965,3963.076904,3870.769287,4301.538574,4013.846191,4200.512695,4160.512695,4068.718018,4024.615479,0.000000,4.000000,,,,0.000000,4.000000,4.000000,4.000000,4.000000,4.000000,4.000000,4.000000,4.000000,4.000000,4.000000,2.000000,4.000000,4.000000,1.000000,58.333332
1601229370.023179,17.000000,0.000000,3920.000000,4631.282227,4168.717773,4282.563965,3996.923096,4634.871582,3970.769287,3876.923096,4309.230957,4020.512939,4208.717773,4168.205078,4081.538574,4025.641113,0.000000,4.000000,,,,0.000000,4.000000,4.000000,4.000000,4.000000,4.000000,4.000000,4.000000,4.000000,4.000000,4.000000,2.000000,4.000000,4.000000,1.000000,58.333332
1601229370.030903,18.000000,0.000000,3923.076904,4637.948730,4166.666504,4287.179688,3997.435791,4646.153809,3977.435791,3887.179443,4327.692383,4033.333252,4214.358887,4173.333496,4092.820557,4024.615479,0.000000,4.000000,,,,0.000000,4.000000,4.000000,4.000000,4.000000,4.000000,4.000000,4.000000,4.000000,4.000000,4.000000,2.000000,4.000000,4.000000,1.000000,58.333332
1601229370.038726,19.000000,0.000000,3917.948730,4633.846191,4161.538574,4281.025879,3994.871826,4642.563965,3974.871826,3883.076904,4327.179688,4029.230713,4207.692383,4165.128418,4086.666748,4010.256348,0.000000,4.000000,,,,0.000000,4.000000,4.000000,4.000000,4.000000,4.000000,4.000000,4.000000,4.000000,4.000000,4.000000,2.000000,4.000000,4.000000,1.000000,58.333332
1601229370.046450,20.000000,0.000000,3916.410156,4630.769043,4162.563965,4272.307617,3992.820557,4635.384766,3973.846191,3873.846191,4310.256348,4017.948730,4203.589844,4158.461426,4073.846191,4004.615479,0.000000,4.000000,,,,0.000000,4.000000,4.000000,4.000000,4.000000,4.000000,4.000000,4.000000,4.000000,4.000000,4.000000,2.000000,4.000000,4.000000,1.000000,58.333332
1601229370.054273,21.000000,0.000000,3920.000000,4633.333496,4165.128418,4275.384766,3993.846191,4635.897461,3977.435791,3874.871826,4307.692383,4021.025635,4206.666504,4162.051270,4073.846191,4006.666748,0.000000,4.000000,,,,0.000000,4.000000,4.000000,4.000000,4.000000,4.000000,4.000000,4.000000,4.000000,4.000000,4.000000,2.000000,4.000000,4.000000,1.000000,58.333332
1601229370.061997,22.000000,0.000000,3922.051270,4631.282227,4164.102539,4278.974121,3990.769287,4631.794922,3972.307617,3876.410156,4313.333496,4020.512939,4204.102539,4162.051270,4078.461426,4004.615479,0.000000,4.000000,,,,0.000000,4.000000,4.000000,4.000000,4.000000,4.000000,4.000000,4.000000,4.000000,4.000000,4.000000,2.000000,4.000000,4.000000,1.000000,58.333332
1601229370.069922,23.000000,0.000000,3926.153809,4633.333496,4169.230957,4280.000000,3989.743652,4630.769043,3970.256348,3876.923096,4318.974121,4019.487061,4204.615234,4161.025879,4085.128174,4003.589844,0.000000,4.000000,,,,0.000000,4.000000,4.000000,4.000000,4.000000,4.000000,4.000000,4.000000,4.000000,4.000000,4.000000,2.000000,4.000000,4.000000,1.000000,58.333332
1601229370.077747,24.000000,0.000000,3927.692383,4641.025879,4175.384766,4282.563965,3992.820557,4636.922852,3976.410156,3878.974365,4317.436035,4028.718018,4211.794922,4163.589844,4091.281982,4009.743652,0.000000,4.000000,,,,0.000000,4.000000,4.000000,4.000000,4.000000,4.000000,4.000000,4.000000,4.000000,4.000000,4.000000,2.000000,4.000000,4.000000,1.000000,58.333332
1601229370.085672,25.000000,0.000000,3921.538574,4636.922852,4167.179688,4280.512695,3993.846191,4634.358887,3974.871826,3876.923096,4310.256348,4033.846191,4210.769043,4158.974121,4087.692383,4009.230713,0.000000,4.000000,,,,0.000000,4.000000,4.000000,4.000000,4.000000,4.000000,4.000000,4.000000,4.000000,4.000000,4.000000,2.000000,4.000000,4.000000,1.000000,58.333332
1601229370.093497,26.000000,0.000000,3915.384521,4621.538574,4156.922852,4270.256348,3987.692383,4618.974121,3968.718018,3871.794922,4308.205078,4023.589844,4203.589844,4146.666504,4075.897461,4007.179443,0.000000,4.000000,,,,0.000000,4.000000,4.000000,4.000000,4.000000,4.000000,4.000000,4.000000,4.000000,4.000000,4.000000,2.000000,4.000000,4.000000,1.000000,58.333332
1601229370.101422,27.000000,0.000000,3915.384521,4622.563965,4163.589844,4269.230957,3987.692383,4621.025879,3978.974365,3873.333252,4313.846191,4023.589844,4203.589844,4144.615234,4076.923096,4006.666748,0.000000,4.000000,,,,0.000000,4.000000,4.000000,4.000000,4.000000,4.000000,4.000000,4.000000,4.000000,4.000000,4.000000,2.000000,4.000000,4.000000,1.000000,58.333332
1601229370.109246,28.000000,0.000000,3921.025635,4634.871582,4173.333496,4275.384766,3990.769287,4635.897461,3980.000000,3876.923096,4317.436035,4034.871826,4205.641113,4153.333496,4084.615479,4007.179443,0.000000,4.000000,,,,0.000000,4.000000,4.000000,4.000000,4.000000,4.000000,4.000000,4.000000,4.000000,4.000000,4.000000,2.000000,4.000000,4.000000,1.000000,58.333332
1601229370.117171,29.000000,0.000000,3930.256348,4637.436035,4176.922852,4275.897461,3991.794922,4635.384766,3963.589844,3876.923096,4313.333496,4037.948730,4204.615234,4158.461426,4085.128174,4008.718018,0.000000,4.000000,,,,0.000000,4.000000,4.000000,4.000000,4.000000,4.000000,4.000000,4.000000,4.000000,4.000000,4.000000,2.000000,4.000000,4.000000,1.000000,58.333332
1601229370.124995,30.000000,0.000000,3932.820557,4638.974121,4175.897461,4276.922852,3996.410156,4631.282227,3960.512939,3876.923096,4313.333496,4036.923096,4206.666504,4157.948730,4081.025635,4010.769287,0.000000,4.000000,,,,0.000000,4.000000,4.000000,4.000000,4.000000,4.000000,4.000000,4.000000,4.000000,4.000000,4.000000,2.000000,4.000000,4.000000,1.000000,58.333332
1601229370.132720,31.000000,0.000000,3924.102539,4643.077148,4169.743652,4277.948730,3998.461426,4634.358887,3970.256348,3878.461426,4317.436035,4040.512939,4207.692383,4157.436035,4081.538574,4009.230713,0.000000,4.000000,,,,0.000000,4.000000,4.000000,4.000000,4.000000,4.000000,4.000000,4.000000,4.000000,4.000000,4.000000,2.000000,4.000000,4.000000,1.000000,58.333332
1601229370.140544,32.000000,0.000000,3918.461426,4634.871582,4166.666504,4269.743652,3990.256348,4632.820313,3972.820557,3876.410156,4314.871582,4042.564209,4209.743652,4158.974121,4083.076904,4008.718018,0.000000,4.000000,,,,0.000000,4.000000,4.000000,4.000000,4.000000,4.000000,4.000000,4.000000,4.000000,4.000000,4.000000,2.000000,4.000000,4.000000,1.000000,58.333332
1601229370.148268,33.000000,0.000000,3926.666748,4627.692383,4175.384766,4266.666504,3986.666748,4630.256348,3974.358887,3876.410156,4310.769043,4043.076904,4212.820313,4159.487305,4085.641113,4009.230713,0.000000,4.000000,,,,0.000000,4.000000,4.000000,4.000000,4.000000,4.000000,4.000000,4.000000,4.000000,4.000000,4.000000,2.000000,4.000000,4.000000,1.000000,58.333332
1601229370.156092,34.000000,0.000000,3932.820557,4637.948730,4177.948730,4278.461426,3995.897461,4634.358887,3977.948730,3882.564209,4320.000000,4051.281982,4214.358887,4156.410156,4092.820557,4007.179443,0.000000,4.000000,,,,0.000000,4.000000,4.000000,4.000000,4.000000,4.000000,4.000000,4.000000,4.000000,4.000000,4.000000,2.000000,4.000000,4.000000,1.000000,58.333332
1601229370.163817,35.000000,0.000000,3930.769287,4646.666504,4170.256348,4283.077148,3999.487061,4635.384766,3977.435791,3883.589844,4325.128418,4055.384521,4213.333496,4153.333496,4095.384521,4008.718018,0.000000,4.000000,,,,0.000000,4.000000,4.000000,4.000000,4.000000,4.000000,4.000000,4.000000,4.000000,4.000000,4.000000,2.000000,4.000000,4.000000,1.000000,58.333332
1601229370.171640,36.000000,0.000000,3928.205078,4645.128418,4166.153809,4276.410156,3992.307617,4633.846191,3976.923096,3877.948730,4320.512695,4054.871826,4216.922852,4148.717773,4094.358887,4011.281982,0.000000,4.000000,,,,0.000000,4.000000,4.000000,4.000000,4.000000,4.000000,4.000000,4.000000,4.000000,4.000000,4.000000,2.000000,4.000000,4.000000,1.000000,58.333332
1601229370.179364,37.000000,0.000000,3927.692383,4645.128418,4169.230957,4274.358887,3989.743652,4632.307617,3974.358887,3873.333252,4317.948730,4054.358887,4218.974121,4148.717773,4085.128174,4009.743652,0.000000,4.000000,,,,0.000000,4.000000,4.000000,4.000000,4.000000,4.000000,4.000000,4.000000,4.000000,4.000000,4.000000,2.000000,4.000000,4.000000,1.000000,58.333332
1601229370.187188,38.000000,0.000000,3926.153809,4644.102539,4171.282227,4276.922852,3991.281982,4629.230957,3974.358887,3875.384521,4320.512695,4053.333252,4212.307617,4155.384766,4079.487061,4005.641113,0.000000,4.000000,,,,0.000000,4.000000,4.000000,4.000000,4.000000,4.000000,4.000000,4.000000,4.000000,4.000000,4.000000,2.000000,4.000000,4.000000,1.000000,58.333332
1601229370.194912,39.000000,0.000000,3926.153809,4638.974121,4173.333496,4274.871582,3988.205078,4627.692383,3975.897461,3871.794922,4315.897461,4050.769287,4206.153809,4157.436035,4082.051270,4003.076904,0.000000,4.000000,,,,0.000000,4.000000,4.000000,4.000000,4.000000,4.000000,4.000000,4.000000,4.000000,4.000000,4.000000,2.000000,4.000000,4.000000,1.000000,58.333332
1601229370.202736,40.000000,0.000000,3929.230713,4646.666504,4172.307617,4278.461426,3998.461426,4633.333496,3977.948730,3866.666748,4313.333496,4057.435791,4209.743652,4154.358887,4088.205078,4000.000000,0.000000,4.000000,,,,0.000000,4.000000,4.000000,4.000000,4.000000,4.000000,4.000000,4.000000,4.000000,4.000000,4.000000,2.000000,4.000000,4.000000,1.000000,58.333332
1601229370.210460,41.000000,0.000000,3927.692383,4648.205078,4167.179688,4282.563965,4005.641113,4629.230957,3971.281982,3868.718018,4313.333496,4064.102539,4212.307617,4154.358887,4087.692383,4003.076904,0.000000,4.000000,,,,0.000000,4.000000,4.000000,4.000000,4.000000,4.000000,4.000000,4.000000,4.000000,4.000000,4.000000,2.000000,4.000000,4.000000,1.000000,58.333332
1601229370.218385,42.000000,0.000000,3925.128174,4640.000000,4168.205078,4278.461426,3993.846191,4620.512695,3963.589844,3871.281982,4314.358887,4063.076904,4210.256348,4160.512695,4088.205078,4005.128174,0.000000,4.000000,,,,0.000000,4.000000,4.000000,4.000000,4.000000,4.000000,4.000000,4.000000,4.000000,4.000000,4.000000,2.000000,4.000000,4.000000,1.000000,58.333332
1601229370.226211,43.000000,0.000000,3929.230713,4642.563965,4175.384766,4272.307617,3983.076904,4626.153809,3969.230713,3871.794922,4317.948730,4061.538574,4209.230957,4161.538574,4089.230713,4004.615479,0.000000,4.000000,,,,0.000000,4.000000,4.000000,4.000000,4.000000,4.000000,4.000000,4.000000,4.000000,4.000000,4.000000,2.000000,4.000000,4.000000,1.000000,58.333332
1601229370.234136,44.000000,0.000000,3931.281982,4646.153809,4177.436035,4268.717773,3982.564209,4634.358887,3974.871826,3873.846191,4317.948730,4063.076904,4208.205078,4158.974121,4085.641113,4003.589844,0.000000,4.000000,,,,0.000000,4.000000,4.000000,4.000000,4.000000,4.000000,4.000000,4.000000,4.000000,4.000000,4.000000,2.000000,4.000000,4.000000,1.000000,58.333332
1601229370.241961,45.000000,0.000000,3924.615479,4636.922852,4170.256348,4266.153809,3979.487061,4628.205078,3969.230713,3875.384521,4312.820313,4064.615479,4207.179688,4158.974121,4080.512939,4005.128174,0.000000,4.000000,,,,0.000000,4.000000,4.000000,4.000000,4.000000,4.000000,4.000000,4.000000,4.000000,4.000000,4.000000,2.000000,4.000000,4.000000,1.000000,58.333332
1601229370.249886,46.000000,0.000000,3917.948730,4630.256348,4162.563965,4262.051270,3976.410156,4624.615234,3970.256348,3873.846191,4312.820313,4064.102539,4204.102539,4155.384766,4074.871826,4000.512939,0.000000,4.000000,,,,0.000000,4.000000,4.000000,4.000000,4.000000,4.000000,4.000000,4.000000,4.000000,4.000000,4.000000,2.000000,4.000000,4.000000,1.000000,58.333332
1601229370.257711,47.000000,0.000000,3912.820557,4626.153809,4160.000000,4255.384766,3978.974365,4629.230957,3973.846191,3873.333252,4316.922852,4062.564209,4200.000000,4147.692383,4068.205078,3994.358887,0.000000,4.000000,,,,0.000000,4.000000,4.000000,4.000000,4.000000,4.000000,4.000000,4.000000,4.000000,4.000000,4.000000,2.000000,4.000000,4.000000,1.000000,58.333332
1601229370.265636,48.000000,0.000000,3908.718018,4620.000000,4157.436035,4250.256348,3977.948730,4623.077148,3964.615479,3870.256348,4314.358887,4064.615479,4198.974121,4142.051270,4063.589844,3992.820557,0.000000,4.000000,,,,0.000000,4.000000,4.000000,4.000000,4.000000,4.000000,4.000000,4.000000,4.000000,4.000000,4.000000,2.000000,4.000000,4.000000,1.000000,58.333332
1601229370.273462,49.000000,0.000000,3909.230713,4626.666504,4154.358887,4252.820313,3975.897461,4617.436035,3960.000000,3864.615479,4307.692383,4070.769287,4201.025879,4141.025879,4068.718018,3995.384521,0.000000,4.000000,,,,0.000000,4.000000,4.000000,4.000000,4.000000,4.000000,4.000000,4.000000,4.000000,4.000000,4.000000,2.000000,4.000000,4.000000,1.000000,58.333332
1601229370.281386,50.000000,0.000000,3914.358887,4636.410156,4157.948730,4257.436035,3979.487061,4628.205078,3971.281982,3865.641113,4307.692383,4075.384521,4203.077148,4144.102539,4083.589844,3998.461426,0.000000,4.000000,,,,0.000000,4.000000,4.000000,4.000000,4.000000,4.000000,4.000000,4.000000,4.000000,4.000000,4.000000,2.000000,4.000000,4.000000,1.000000,58.333332
1601229370.289211,51.000000,0.000000,3919.487061,4637.436035,4166.666504,4261.538574,3989.743652,4636.410156,3976.923096,3871.281982,4318.461426,4080.000000,4210.256348,4148.205078,4092.820557,3998.974365,0.000000,4.000000,,,,0.000000,4.000000,4.000000,4.000000,4.000000,4.000000,4.000000,4.000000,4.000000,4.000000,4.000000,2.000000,4.000000,4.000000,1.000000,58.333332
1601229370.297136,52.000000,0.000000,3920.000000,4637.948730,4170.769043,4265.128418,3992.307617,4630.256348,3971.794922,3870.256348,4321.538574,4083.589844,4215.384766,4152.307617,4089.743652,4001.538574,0.000000,4.000000,,,,0.000000,4.000000,4.000000,4.000000,4.000000,4.000000,4.000000,4.000000,4.000000,4.000000,4.000000,2.000000,4.000000,4.000000,1.000000,58.333332
1601229370.304961,53.000000,0.000000,3920.000000,4642.051270,4168.205078,4269.230957,3992.820557,4630.769043,3970.256348,3869.230713,4317.948730,4090.256348,4213.846191,4156.922852,4089.743652,4004.615479,0.000000,4.000000,,,,0.000000,4.000000,4.000000,4.000000,4.000000,4.000000,4.000000,4.000000,4.000000,4.000000,4.000000,2.000000,4.000000,4.000000,1.000000,58.333332
1601229370.312885,54.000000,0.000000,3923.589844,4644.102539,4168.717773,4272.820313,3997.435791,4634.358887,3964.615479,3872.307617,4317.948730,4094.871826,4213.333496,4157.436035,4092.820557,4006.153809,0.000000,4.000000,,,,0.000000,4.000000,4.000000,4.000000,4.000000,4.000000,4.000000,4.000000,4.000000,4.000000,4.000000,2.000000,4.000000,4.000000,1.000000,58.333332
1601229370.320709,55.000000,0.000000,3923.076904,4643.077148,4171.282227,4272.307617,3991.281982,4627.179688,3961.025635,3875.384521,4320.000000,4093.333252,4213.846191,4150.769043,4089.230713,4003.076904,0.000000,4.000000,,,,0.000000,4.000000,4.000000,4.000000,4.000000,4.000000,4.000000,4.000000,4.000000,4.000000,4.000000,2.000000,4.000000,4.000000,1.000000,58.333332
1601229370.328434,56.000000,0.000000,3917.948730,4636.410156,4166.153809,4264.615234,3976.923096,4621.025879,3967.692383,3873.846191,4314.358887,4090.769287,4208.717773,4146.153809,4081.538574,4001.025635,0.000000,4.000000,,,,0.000000,4.000000,4.000000,4.000000,4.000000,4.000000,4.000000,4.000000,4.000000,4.000000,4.000000,2.000000,4.000000,4.000000,1.000000,58.333332
1601229370.336258,57.000000,0.000000,3917.435791,4628.205078,4162.051270,4265.128418,3979.487061,4623.589844,3975.384521,3875.384521,4311.794922,4095.384521,4205.128418,4148.205078,4084.615479,4000.000000,0.000000,4.000000,,,,0.000000,4.000000,4.000000,4.000000,4.000000,4.000000,4.000000,4.000000,4.000000,4.000000,4.000000,2.000000,4.000000,4.000000,1.000000,58.333332
1601229370.343982,58.000000,0.000000,3912.820557,4625.641113,4158.974121,4268.717773,3986.666748,4620.512695,3968.718018,3875.897461,4314.358887,4096.410156,4206.153809,4146.666504,4084.102539,4001.025635,0.000000,4.000000,,,,0.000000,4.000000,4.000000,4.000000,4.000000,4.000000,4.000000,4.000000,4.000000,4.000000,4.000000,2.000000,4.000000,4.000000,1.000000,58.333332
1601229370.351806,59.000000,0.000000,3908.718018,4630.769043,4156.922852,4262.563965,3981.538574,4619.487305,3960.512939,3874.871826,4317.948730,4096.922852,4206.153809,4144.102539,4076.410156,3997.948730,0.000000,4.000000,,,,0.000000,4.000000,4.000000,4.000000,4.000000,4.000000,4.000000,4.000000,4.000000,4.000000,4.000000,2.000000,4.000000,4.000000,1.000000,58.333332
1601229370.359530,60.000000,0.000000,3913.333252,4632.307617,4157.436035,4256.922852,3973.846191,4623.589844,3965.128174,3875.897461,4318.974121,4102.563965,4203.589844,4145.128418,4077.948730,3998.974365,0.000000,4.000000,,,,0.000000,4.000000,4.000000,4.000000,4.000000,4.000000,4.000000,4.000000,4.000000,4.000000,4.000000,2.000000,4.000000,4.000000,1.000000,58.333332
1601229370.367354,61.000000,0.000000,3917.948730,4633.333496,4160.000000,4258.461426,3977.435791,4625.128418,3973.846191,3873.846191,4317.948730,4108.717773,4208.717773,4147.692383,4087.179443,4002.051270,0.000000,4.000000,,,,0.000000,4.000000,4.000000,4.000000,4.000000,4.000000,4.000000,4.000000,4.000000,4.000000,4.000000,2.000000,4.000000,4.000000,1.000000,58.333332
1601229370.375077,62.000000,0.000000,3916.410156,4633.333496,4157.436035,4256.410156,3985.641113,4618.461426,3964.615479,3866.153809,4315.897461,4114.358887,4212.820313,4149.230957,4084.615479,3998.461426,0.000000,4.000000,,,,0.000000,4.000000,4.000000,4.000000,4.000000,4.000000,4.000000,4.000000,4.000000,4.000000,4.000000,2.000000,4.000000,4.000000,1.000000,58.333332
1601229370.382901,63.000000,0.000000,3914.358887,4627.692383,4155.384766,4253.846191,3985.641113,4608.205078,3946.666748,3859.487061,4308.717773,4110.256348,4209.230957,4147.179688,4076.410156,3994.871826,0.000000,4.000000,,,,0.000000,4.000000,4.000000,4.000000,4.000000,4.000000,4.000000,4.000000,4.000000,4.000000,4.000000,2.000000,4.000000,4.000000,1.000000,58.333332
1601229370.390624,64.000000,0.000000,3916.410156,4632.307617,4161.538574,4258.974121,3983.589844,4613.333496,3953.333252,3863.589844,4303.589844,4107.179688,4209.230957,4150.256348,4083.076904,4000.512939,378.000000,4.000000,,,,0.000000,4.000000,4.000000,4.000000,4.000000,4.000000,4.000000,4.000000,4.000000,4.000000,4.000000,2.000000,4.000000,4.000000,1.000000,58.333332
1601229370.398447,65.000000,0.000000,3916.923096,4645.641113,4164.102539,4261.538574,3984.615479,4629.743652,3967.692383,3869.743652,4306.666504,4114.358887,4212.307617,4155.384766,4086.666748,4001.538574,435.000000,4.000000,,,,0.000000,4.000000,4.000000,4.000000,4.000000,4.000000,4.000000,4.000000,4.000000,4.000000,4.000000,2.000000,4.000000,4.000000,1.000000,58.333332
1601229370.406171,66.000000,0.000000,3914.358887,4641.025879,4163.077148,4256.410156,3980.512939,4631.794922,3964.615479,3868.205078,4310.256348,4117.436035,4206.666504,4152.820313,4078.974365,3994.871826,386.000000,4.000000,,,,0.000000,4.000000,4.000000,4.000000,4.000000,4.000000,4.000000,4.000000,4.000000,4.000000,4.000000,2.000000,4.000000,4.000000,1.000000,58.333332
1601229370.414096,67.000000,0.000000,3913.333252,4627.692383,4163.077148,4251.794922,3974.358887,4620.512695,3957.948730,3866.153809,4307.692383,4112.307617,4201.538574,4145.128418,4075.384521,3995.384521,435.000000,4.000000,,,,0.000000,4.000000,4.000000,4.000000,4.000000,4.000000,4.000000,4.000000,4.000000,4.000000,4.000000,2.000000,4.000000,4.000000,1.000000,58.333332
1601229370.421921,68.000000,0.000000,3911.794922,4630.769043,4156.410156,4253.333496,3981.025635,4622.563965,3964.102539,3871.794922,4311.282227,4116.922852,4205.128418,4142.563965,4077.948730,3994.358887,456.000000,4.000000,,,,0.000000,4.000000,4.000000,4.000000,4.000000,4.000000,4.000000,4.000000,4.000000,4.000000,4.000000,2.000000,4.000000,4.000000,1.000000,58.333332
1601229370.429846,69.000000,0.000000,3910.769287,4635.384766,4150.769043,4258.974121,3985.641113,4630.769043,3970.256348,3876.410156,4319.487305,4122.051270,4205.641113,4143.589844,4075.384521,3997.948730,434.000000,4.000000,,,,0.000000,4.000000,4.000000,4.000000,4.000000,4.000000,4.000000,4.000000,4.000000,4.000000,4.000000,2.000000,4.000000,4.000000,1.000000,58.333332
1601229370.437671,70.000000,0.000000,3909.743652,4638.461426,4150.769043,4262.051270,3982.051270,4627.692383,3969.230713,3875.384521,4322.051270,4121.538574,4201.538574,4143.077148,4070.256348,4014.871826,449.000000,4.000000,,,,0.000000,4.000000,4.000000,4.000000,4.000000,4.000000,4.000000,4.000000,4.000000,4.000000,4.000000,2.000000,4.000000,4.000000,1.000000,58.333332
1601229370.445596,71.000000,0.000000,3911.281982,4636.922852,4155.897461,4255.384766,3978.974365,4621.025879,3970.769287,3875.384521,4315.897461,4125.128418,4202.563965,4142.051270,4071.281982,4028.718018,353.000000,4.000000,,,,0.000000,4.000000,4.000000,4.000000,4.000000,4.000000,4.000000,4.000000,4.000000,4.000000,4.000000,2.000000,4.000000,4.000000,1.000000,58.333332
1601229370.453421,72.000000,0.000000,3913.846191,4632.307617,4160.000000,4257.436035,3979.487061,4624.102539,3978.461426,3880.512939,4320.000000,4134.358887,4210.256348,4146.153809,4083.076904,4022.564209,405.000000,4.000000,,,,0.000000,4.000000,4.000000,4.000000,4.000000,4.000000,4.000000,4.000000,4.000000,4.000000,4.000000,2.000000,4.000000,4.000000,1.000000,58.333332
1601229370.461346,73.000000,0.000000,3909.230713,4626.153809,4155.897461,4260.512695,3980.000000,4623.077148,3969.230713,3878.461426,4326.153809,4137.436035,4210.769043,4147.692383,4083.589844,4011.794922,405.000000,4.000000,,,,0.000000,4.000000,4.000000,4.000000,4.000000,4.000000,4.000000,4.000000,4.000000,4.000000,4.000000,2.000000,4.000000,4.000000,1.000000,58.333332
1601229370.469171,74.000000,0.000000,3902.051270,4626.153809,4150.256348,4257.436035,3984.102539,4621.025879,3958.461426,3873.846191,4323.077148,4142.051270,4205.641113,4141.538574,4076.923096,3998.974365,429.000000,4.000000,,,,0.000000,4.000000,4.000000,4.000000,4.000000,4.000000,4.000000,4.000000,4.000000,4.000000,4.000000,2.000000,4.000000,4.000000,1.000000,58.333332
1601229370.477095,75.000000,0.000000,3908.205078,4632.307617,4157.948730,4258.461426,3986.666748,4624.615234,3963.589844,3877.435791,4321.025879,4147.692383,4207.179688,4142.051270,4078.461426,3991.794922,45.000000,4.000000,,,,0.000000,4.000000,4.000000,4.000000,4.000000,4.000000,4.000000,4.000000,4.000000,4.000000,4.000000,2.000000,4.000000,4.000000,1.000000,58.333332
1601229370.484920,76.000000,0.000000,3913.846191,4634.871582,4164.102539,4260.000000,3980.000000,4623.077148,3962.564209,3875.384521,4318.461426,4146.153809,4208.205078,4149.230957,4078.461426,3994.358887,242.000000,4.000000,,,,0.000000,4.000000,4.000000,4.000000,4.000000,4.000000,4.000000,4.000000,4.000000,4.000000,4.000000,2.000000,4.000000,4.000000,1.000000,58.333332
1601229370.492644,77.000000,0.000000,3906.666748,4622.563965,4154.358887,4251.282227,3970.769287,4615.384766,3950.769287,3860.000000,4308.205078,4135.384766,4202.563965,4146.666504,4067.692383,3997.435791,349.000000,4.000000,,,,0.000000,4.000000,4.000000,4.000000,4.000000,4.000000,4.000000,4.000000,4.000000,4.000000,4.000000,2.000000,4.000000,4.000000,1.000000,58.333332
1601229370.500469,78.000000,0.000000,3908.205078,4616.410156,4150.769043,4253.333496,3973.846191,4617.948730,3955.897461,3857.948730,4303.077148,4130.256348,4199.487305,4141.025879,4066.666748,3993.333252,429.000000,4.000000,,,,0.000000,4.000000,4.000000,4.000000,4.000000,4.000000,4.000000,4.000000,4.000000,4.000000,4.000000,2.000000,4.000000,4.000000,1.000000,58.333332
1601229370.508393,79.000000,0.000000,3913.333252,4632.820313,4155.384766,4262.563965,3982.564209,4623.077148,3967.692383,3867.692383,4304.615234,4129.743652,4200.512695,4141.025879,4069.743652,3990.769287,45.000000,4.000000,,,,0.000000,4.000000,4.000000,4.000000,4.000000,4.000000,4.000000,4.000000,4.000000,4.000000,4.000000,2.000000,4.000000,4.000000,1.000000,58.333332
1601229370.516218,80.000000,0.000000,3910.769287,4640.000000,4157.948730,4253.333496,3983.076904,4617.948730,3962.051270,3865.128174,4299.487305,4123.077148,4199.487305,4143.077148,4065.641113,3991.794922,242.000000,4.000000,,,,0.000000,4.000000,4.000000,4.000000,4.000000,4.000000,4.000000,4.000000,4.000000,4.000000,4.000000,2.000000,4.000000,4.000000,1.000000,58.333332
1601229370.523942,81.000000,0.000000,3911.794922,4623.077148,4161.538574,4247.179688,3979.487061,4613.333496,3954.871826,3859.487061,4293.333496,4121.538574,4202.563965,4145.128418,4070.769287,3992.820557,349.000000,4.000000,,,,0.000000,4.000000,4.000000,4.000000,4.000000,4.000000,4.000000,4.000000,4.000000,4.000000,4.000000,2.000000,4.000000,4.000000,1.000000,58.333332
1601229370.531766,82.000000,0.000000,3909.743652,4613.846191,4156.922852,4253.333496,3979.487061,4615.384766,3957.948730,3866.666748,4292.307617,4126.666504,4204.615234,4142.563965,4069.743652,3989.743652,429.000000,4.000000,,,,0.000000,4.000000,4.000000,4.000000,4.000000,4.000000,4.000000,4.000000,4.000000,4.000000,4.000000,2.000000,4.000000,4.000000,1.000000,58.333332
1601229370.539490,83.000000,0.000000,3902.051270,4623.077148,4148.205078,4253.333496,3980.512939,4624.102539,3968.205078,3877.435791,4297.948730,4125.128418,4199.487305,4136.922852,4056.923096,3987.179443,45.000000,4.000000,,,,0.000000,4.000000,4.000000,4.000000,4.000000,4.000000,4.000000,4.000000,4.000000,4.000000,4.000000,2.000000,4.000000,4.000000,1.000000,58.333332
1601229370.547314,84.000000,0.000000,3907.179443,4628.205078,4154.358887,4247.179688,3979.487061,4631.282227,3982.564209,3883.076904,4307.692383,4121.025879,4196.922852,4140.000000,4057.948730,3991.281982,242.000000,4.000000,,,,0.000000,4.000000,4.000000,4.000000,4.000000,4.000000,4.000000,4.000000,4.000000,4.000000,4.000000,2.000000,4.000000,4.000000,1.000000,58.333332
1601229370.555038,85.000000,0.000000,3920.000000,4627.179688,4162.051270,4250.769043,3983.076904,4635.384766,3993.333252,3888.718018,4323.589844,4134.358887,4204.102539,4148.205078,4076.923096,3993.333252,349.000000,4.000000,,,,0.000000,4.000000,4.000000,4.000000,4.000000,4.000000,4.000000,4.000000,4.000000,4.000000,4.000000,2.000000,4.000000,4.000000,1.000000,58.333332
1601229370.562861,86.000000,0.000000,3920.512939,4625.641113,4157.436035,4256.922852,3982.051270,4629.230957,3978.461426,3884.102539,4326.666504,4147.179688,4210.769043,4148.717773,4086.666748,3992.307617,429.000000,4.000000,,,,0.000000,4.000000,4.000000,4.000000,4.000000,4.000000,4.000000,4.000000,4.000000,4.000000,4.000000,2.000000,4.000000,4.000000,1.000000,58.333332
1601229370.570589,87.000000,0.000000,3914.871826,4626.153809,4151.794922,4257.436035,3982.564209,4613.846191,3958.461426,3870.769287,4310.256348,4138.974121,4211.282227,4143.589844,4082.564209,3989.230713,45.000000,4.000000,,,,0.000000,4.000000,4.000000,4.000000,4.000000,4.000000,4.000000,4.000000,4.000000,4.000000,4.000000,2.000000,4.000000,4.000000,1.000000,58.333332
1601229370.578520,88.000000,0.000000,3913.333252,4631.794922,4153.333496,4258.461426,3988.205078,4609.743652,3960.000000,3862.564209,4300.512695,4128.717773,4209.230957,4143.077148,4076.410156,3990.256348,242.000000,4.000000,,,,0.000000,4.000000,4.000000,4.000000,4.000000,4.000000,4.000000,4.000000,4.000000,4.000000,4.000000,2.000000,4.000000,4.000000,1.000000,58.333332
1601229370.586350,89.000000,0.000000,3916.923096,4638.974121,4155.897461,4260.512695,3988.205078,4622.563965,3964.615479,3862.051270,4311.282227,4135.384766,4208.717773,4147.179688,4080.000000,3992.307617,349.000000,4.000000,,,,0.000000,4.000000,4.000000,4.000000,4.000000,4.000000,4.000000,4.000000,4.000000,4.000000,4.000000,2.000000,4.000000,4.000000,1.000000,58.333332
1601229370.594180,90.000000,0.000000,3916.923096,4628.717773,4151.282227,4253.333496,3977.435791,4624.615234,3953.846191,3856.923096,4309.743652,4134.358887,4204.615234,4146.153809,4084.102539,3993.333252,429.000000,4.000000,,,,0.000000,4.000000,4.000000,4.000000,4.000000,4.000000,4.000000,4.000000,4.000000,4.000000,4.000000,2.000000,4.000000,4.000000,1.000000,58.333332
1601229370.602011,91.000000,0.000000,3914.358887,4619.487305,4146.153809,4249.230957,3977.948730,4617.948730,3954.871826,3857.435791,4300.000000,4123.589844,4204.615234,4140.512695,4077.435791,3989.230713,45.000000,4.000000,,,,0.000000,4.000000,4.000000,4.000000,4.000000,4.000000,4.000000,4.000000,4.000000,4.000000,4.000000,2.000000,4.000000,4.000000,1.000000,58.333332
1601229370.609936,92.000000,0.000000,3915.384521,4629.230957,4149.230957,4255.384766,3985.128174,4615.384766,3961.538574,3865.128174,4303.077148,4123.077148,4207.692383,4141.025879,4070.769287,3992.307617,242.000000,4.000000,,,,0.000000,4.000000,4.000000,4.000000,4.000000,4.000000,4.000000,4.000000,4.000000,4.000000,4.000000,2.000000,4.000000,4.000000,1.000000,58.333332
1601229370.617761,93.000000,0.000000,3917.948730,4637.436035,4149.743652,4258.974121,3984.102539,4612.307617,3953.846191,3865.128174,4303.589844,4125.128418,4204.102539,4143.589844,4070.256348,3993.846191,349.000000,4.000000,,,,0.000000,4.000000,4.000000,4.000000,4.000000,4.000000,4.000000,4.000000,4.000000,4.000000,4.000000,2.000000,4.000000,4.000000,1.000000,58.333332
1601229370.625686,94.000000,0.000000,3915.897461,4634.358887,4140.512695,4257.436035,3985.128174,4615.384766,3950.769287,3865.128174,4299.487305,4117.948730,4199.487305,4141.538574,4065.128174,3988.205078,429.000000,4.000000,,,,0.000000,4.000000,4.000000,4.000000,4.000000,4.000000,4.000000,4.000000,4.000000,4.000000,4.000000,2.000000,4.000000,4.000000,1.000000,58.333332
1601229370.633512,95.000000,0.000000,3915.384521,4636.410156,4138.974121,4258.974121,3988.718018,4625.641113,3965.641113,3870.256348,4303.077148,4115.384766,4198.974121,4141.025879,4061.025635,3988.205078,45.000000,4.000000,,,,0.000000,4.000000,4.000000,4.000000,4.000000,4.000000,4.000000,4.000000,4.000000,4.000000,4.000000,2.000000,4.000000,4.000000,1.000000,58.333332
1601229370.641436,96.000000,0.000000,3917.948730,4641.025879,4144.615234,4262.051270,3987.692383,4628.205078,3975.384521,3870.769287,4306.666504,4122.563965,4204.615234,4144.615234,4071.281982,3992.820557,242.000000,4.000000,,,,0.000000,4.000000,4.000000,4.000000,4.000000,4.000000,4.000000,4.000000,4.000000,4.000000,4.000000,2.000000,4.000000,4.000000,1.000000,58.333332
1601229370.649261,97.000000,0.000000,3918.461426,4641.025879,4142.051270,4258.974121,3988.718018,4626.666504,3967.179443,3867.692383,4305.128418,4126.153809,4207.692383,4145.128418,4079.487061,3990.256348,349.000000,4.000000,,,,0.000000,4.000000,4.000000,4.000000,4.000000,4.000000,4.000000,4.000000,4.000000,4.000000,4.000000,2.000000,4.000000,4.000000,1.000000,58.333332
1601229370.657186,98.000000,0.000000,3912.307617,4633.333496,4132.820313,4252.820313,3991.281982,4626.666504,3957.435791,3869.230713,4305.641113,4121.025879,4203.077148,4141.025879,4068.718018,3987.179443,429.000000,4.000000,,,,0.000000,4.000000,4.000000,4.000000,4.000000,4.000000,4.000000,4.000000,4.000000,4.000000,4.000000,2.000000,4.000000,4.000000,1.000000,58.333332
1601229370.665011,99.000000,0.000000,3910.256348,4624.615234,4133.846191,4249.743652,3986.153809,4621.538574,3958.974365,3871.281982,4308.717773,4117.948730,4199.487305,4140.512695,4063.076904,3990.769287,45.000000,4.000000,,,,0.000000,4.000000,4.000000,4.000000,4.000000,4.000000,4.000000,4.000000,4.000000,4.000000,4.000000,2.000000,4.000000,4.000000,1.000000,58.333332
1601229370.672935,100.000000,0.000000,3913.846191,4627.692383,4140.512695,4251.794922,3985.641113,4620.512695,3966.153809,3872.307617,4310.769043,4122.563965,4203.589844,4144.615234,4074.871826,3990.256348,242.000000,4.000000,,,,0.000000,4.000000,4.000000,4.000000,4.000000,4.000000,4.000000,4.000000,4.000000,4.000000,4.000000,2.000000,4.000000,4.000000,1.000000,58.333332
1601229370.680759,101.000000,0.000000,3914.358887,4635.384766,4137.948730,4251.794922,3989.230713,4622.051270,3962.564209,3873.846191,4308.717773,4122.051270,4206.666504,4144.102539,4079.487061,3988.718018,349.000000,4.000000,,,,0.000000,4.000000,4.000000,4.000000,4.000000,4.000000,4.000000,4.000000,4.000000,4.000000,4.000000,2.000000,4.000000,4.000000,1.000000,58.333332
1601229370.688484,102.000000,0.000000,3917.435791,4641.538574,4136.922852,4260.512695,3993.333252,4623.589844,3954.871826,3877.435791,4314.358887,4125.641113,4211.794922,4145.641113,4084.102539,3990.769287,429.000000,4.000000,,,,0.000000,4.000000,4.000000,4.000000,4.000000,4.000000,4.000000,4.000000,4.000000,4.000000,4.000000,2.000000,4.000000,4.000000,1.000000,58.333332
1601229370.696308,103.000000,0.000000,3924.102539,4643.077148,4144.615234,4272.307617,3993.846191,4628.717773,3957.435791,3880.512939,4326.666504,4135.384766,4222.051270,4157.948730,4098.461426,3994.871826,45.000000,4.000000,,,,0.000000,4.000000,4.000000,4.000000,4.000000,4.000000,4.000000,4.000000,4.000000,4.000000,4.000000,2.000000,4.000000,4.000000,1.000000,58.333332
1601229370.704032,104.000000,0.000000,3921.538574,4638.461426,4146.666504,4269.743652,3989.743652,4631.282227,3966.666748,3881.025635,4330.256348,4131.794922,4221.025879,4162.051270,4098.974121,3991.794922,242.000000,4.000000,,,,0.000000,4.000000,4.000000,4.000000,4.000000,4.000000,4.000000,4.000000,4.000000,4.000000,4.000000,2.000000,4.000000,4.000000,1.000000,58.333332
1601229370.711856,105.000000,0.000000,3916.923096,4632.820313,4137.436035,4262.563965,3984.102539,4622.563965,3957.948730,3872.820557,4320.000000,4112.820313,4207.179688,4149.743652,4080.000000,3992.307617,349.000000,4.000000,,,,0.000000,4.000000,4.000000,4.000000,4.000000,4.000000,4.000000,4.000000,4.000000,4.000000,4.000000,2.000000,4.000000,4.000000,1.000000,58.333332
1601229370.719580,106.000000,0.000000,3917.435791,4634.871582,4133.333496,4268.717773,3984.615479,4618.974121,3942.564209,3868.205078,4316.410156,4104.102539,4204.102539,4145.128418,4075.384521,3995.384521,429.000000,4.000000,,,,0.000000,4.000000,4.000000,4.000000,4.000000,4.000000,4.000000,4.000000,4.000000,4.000000,4.000000,2.000000,4.000000,4.000000,1.000000,58.333332
1601229370.727403,107.000000,0.000000,3914.358887,4635.384766,4134.358887,4274.871582,3984.615479,4621.538574,3944.102539,3874.358887,4316.922852,4101.025879,4208.205078,4150.256348,4080.512939,3997.948730,45.000000,4.000000,,,,0.000000,4.000000,4.000000,4.000000,4.000000,4.000000,4.000000,4.000000,4.000000,4.000000,4.000000,2.000000,4.000000,4.000000,1.000000,58.333332
1601229370.735127,108.000000,0.000000,3906.153809,4631.794922,4132.307617,4268.717773,3985.128174,4618.974121,3953.333252,3874.871826,4309.743652,4090.256348,4205.641113,4150.769043,4074.358887,3996.923096,242.000000,4.000000,,,,0.000000,4.000000,4.000000,4.000000,4.000000,4.000000,4.000000,4.000000,4.000000,4.000000,4.000000,2.000000,4.000000,4.000000,1.000000,58.333332
1601229370.742951,109.000000,0.000000,3905.128174,4620.512695,4130.769043,4255.897461,3985.128174,4614.358887,3948.718018,3863.076904,4297.436035,4078.974365,4198.461426,4143.589844,4061.025635,4000.000000,349.000000,4.000000,,,,0.000000,4.000000,4.000000,4.000000,4.000000,4.000000,4.000000,4.000000,4.000000,4.000000,4.000000,2.000000,4.000000,4.000000,1.000000,58.333332
1601229370.750674,110.000000,0.000000,3909.743652,4611.794922,4134.358887,4254.358887,3982.051270,4617.436035,3945.128174,3861.538574,4296.922852,4076.923096,4198.974121,4142.051270,4061.025635,4002.564209,429.000000,4.000000,,,,0.000000,4.000000,4.000000,4.000000,4.000000,4.000000,4.000000,4.000000,4.000000,4.000000,4.000000,2.000000,4.000000,4.000000,1.000000,58.333332
1601229370.758498,111.000000,0.000000,3910.256348,4626.153809,4136.410156,4267.179688,3980.512939,4625.128418,3952.820557,3869.230713,4304.615234,4086.666748,4204.615234,4147.179688,4076.923096,4003.076904,45.000000,4.000000,,,,0.000000,4.000000,4.000000,4.000000,4.000000,4.000000,4.000000,4.000000,4.000000,4.000000,4.000000,2.000000,4.000000,4.000000,1.000000,58.333332
1601229370.766221,112.000000,0.000000,3909.743652,4639.487305,4134.871582,4270.256348,3984.615479,4628.205078,3956.923096,3868.718018,4307.179688,4093.846191,4212.820313,4152.820313,4090.769287,4007.692383,242.000000,4.000000,,,,0.000000,4.000000,4.000000,4.000000,4.000000,4.000000,4.000000,4.000000,4.000000,4.000000,4.000000,2.000000,4.000000,4.000000,1.000000,58.333332
1601229370.774044,113.000000,0.000000,3912.820557,4628.717773,4135.384766,4257.948730,3991.794922,4626.666504,3949.230713,3865.641113,4306.666504,4093.333252,4218.974121,4153.333496,4091.794922,4013.846191,349.000000,4.000000,,,,0.000000,4.000000,4.000000,4.000000,4.000000,4.000000,4.000000,4.000000,4.000000,4.000000,4.000000,2.000000,4.000000,4.000000,1.000000,58.333332
1601229370.781768,114.000000,0.000000,3916.410156,4622.563965,4134.871582,4258.461426,3992.820557,4622.563965,3937.435791,3865.641113,4306.153809,4091.794922,4212.307617,4150.256348,4086.666748,4007.692383,429.000000,4.000000,,,,0.000000,4.000000,4.000000,4.000000,4.000000,4.000000,4.000000,4.000000,4.000000,4.000000,4.000000,2.000000,4.000000,4.000000,1.000000,58.333332
1601229370.789693,115.000000,0.000000,3911.794922,4630.769043,4133.333496,4263.589844,3984.102539,4616.922852,3932.307617,3862.564209,4304.102539,4089.230713,4204.102539,4148.205078,4080.512939,3996.410156,45.000000,4.000000,,,,0.000000,4.000000,4.000000,4.000000,4.000000,4.000000,4.000000,4.000000,4.000000,4.000000,4.000000,2.000000,4.000000,4.000000,1.000000,58.333332
1601229370.797518,116.000000,0.000000,3903.076904,4624.102539,4129.743652,4251.794922,3972.820557,4609.743652,3931.794922,3857.435791,4299.487305,4075.384521,4201.538574,4141.025879,4067.179443,3999.487061,242.000000,4.000000,,,,0.000000,4.000000,4.000000,4.000000,4.000000,4.000000,4.000000,4.000000,4.000000,4.000000,4.000000,2.000000,4.000000,4.000000,1.000000,58.333332
1601229370.805443,117.000000,0.000000,3902.051270,4615.897461,4127.692383,4249.230957,3973.846191,4609.743652,3930.769287,3858.974365,4297.948730,4067.179443,4200.512695,4131.794922,4056.923096,4006.666748,349.000000,4.000000,,,,0.000000,4.000000,4.000000,4.000000,4.000000,4.000000,4.000000,4.000000,4.000000,4.000000,4.000000,2.000000,4.000000,4.000000,1.000000,58.333332
1601229370.813268,118.000000,0.000000,3905.641113,4621.538574,4131.282227,4257.436035,3977.435791,4611.282227,3926.666748,3861.025635,4297.436035,4068.718018,4196.922852,4130.769043,4057.435791,4004.102539,429.000000,4.000000,,,,0.000000,4.000000,4.000000,4.000000,4.000000,4.000000,4.000000,4.000000,4.000000,4.000000,4.000000,2.000000,4.000000,4.000000,1.000000,58.333332
1601229370.821193,119.000000,0.000000,3908.205078,4627.692383,4133.846191,4260.000000,3980.512939,4610.256348,3927.179443,3859.487061,4297.948730,4070.256348,4195.384766,4136.410156,4066.666748,3998.461426,45.000000,4.000000,,,,0.000000,4.000000,4.000000,4.000000,4.000000,4.000000,4.000000,4.000000,4.000000,4.000000,4.000000,2.000000,4.000000,4.000000,1.000000,58.333332
1601229370.829018,120.000000,0.000000,3911.794922,4630.256348,4134.358887,4260.000000,3983.076904,4613.846191,3936.923096,3860.512939,4302.563965,4073.846191,4199.487305,4141.538574,4071.281982,4003.589844,242.000000,4.000000,,,,0.000000,4.000000,4.000000,4.000000,4.000000,4.000000,4.000000,4.000000,4.000000,4.000000,4.000000,2.000000,4.000000,4.000000,1.000000,58.333332
1601229370.836942,121.000000,0.000000,3918.461426,4636.410156,4139.487305,4262.051270,3983.589844,4619.487305,3945.641113,3867.692383,4310.769043,4081.025635,4208.205078,4144.102539,4078.461426,4008.205078,349.000000,4.000000,,,,0.000000,4.000000,4.000000,4.000000,4.000000,4.000000,4.000000,4.000000,4.000000,4.000000,4.000000,2.000000,4.000000,4.000000,1.000000,58.333332
1601229370.844766,122.000000,0.000000,3920.000000,4635.897461,4142.051270,4264.102539,3984.615479,4614.358887,3940.000000,3867.692383,4311.282227,4077.948730,4211.282227,4143.589844,4085.641113,4008.205078,429.000000,4.000000,,,,0.000000,4.000000,4.000000,4.000000,4.000000,4.000000,4.000000,4.000000,4.000000,4.000000,4.000000,2.000000,4.000000,4.000000,1.000000,58.333332
1601229370.852491,123.000000,0.000000,3918.461426,4636.410156,4139.487305,4272.820313,3989.743652,4614.358887,3938.974365,3863.589844,4312.820313,4073.846191,4209.230957,4143.077148,4085.128174,4003.076904,45.000000,4.000000,,,,0.000000,4.000000,4.000000,4.000000,4.000000,4.000000,4.000000,4.000000,4.000000,4.000000,4.000000,2.000000,4.000000,4.000000,1.000000,58.333332
1601229370.860316,124.000000,0.000000,3918.974365,4635.384766,4143.077148,4275.384766,3988.205078,4618.461426,3945.128174,3871.281982,4319.487305,4076.923096,4209.743652,4143.589844,4082.051270,4003.589844,242.000000,4.000000,,,,0.000000,4.000000,4.000000,4.000000,4.000000,4.000000,4.000000,4.000000,4.000000,4.000000,4.000000,2.000000,4.000000,4.000000,1.000000,58.333332
1601229370.868240,125.000000,0.000000,3918.461426,4632.307617,4147.692383,4266.666504,3984.615479,4614.871582,3941.538574,3877.948730,4320.512695,4077.948730,4211.282227,4143.589844,4083.076904,4005.128174,349.000000,4.000000,,,,0.000000,4.000000,4.000000,4.000000,4.000000,4.000000,4.000000,4.000000,4.000000,4.000000,4.000000,2.000000,4.000000,4.000000,1.000000,58.333332
1601229370.876064,126.000000,0.000000,3917.435791,4633.846191,4143.589844,4263.077148,3983.589844,4609.743652,3934.358887,3870.769287,4312.820313,4071.794922,4210.256348,4143.077148,4081.025635,4006.153809,429.000000,4.000000,,,,0.000000,4.000000,4.000000,4.000000,4.000000,4.000000,4.000000,4.000000,4.000000,4.000000,4.000000,2.000000,4.000000,4.000000,1.000000,58.333332
1601229370.883788,127.000000,0.000000,3914.871826,4632.307617,4139.487305,4262.563965,3982.564209,4609.230957,3930.769287,3861.538574,4305.128418,4060.000000,4206.153809,4141.025879,4070.256348,4003.589844,45.000000,4.000000,,,,0.000000,4.000000,4.000000,4.000000,4.000000,4.000000,4.000000,4.000000,4.000000,4.000000,4.000000,2.000000,4.000000,4.000000,1.000000,58.333332
1601229370.891613,128.000000,0.000000,3910.256348,4626.666504,4141.025879,4258.974121,3982.564209,4606.666504,3925.128174,3861.538574,4300.512695,4053.333252,4203.589844,4137.436035,4065.128174,4001.538574,242.000000,4.000000,,,,0.000000,4.000000,4.000000,4.000000,4.000000,4.000000,4.000000,4.000000,4.000000,4.000000,4.000000,2.000000,4.000000,4.000000,1.000000,58.333332
1601229370.899337,0.000000,0.000000,3911.281982,4630.769043,4143.589844,4256.410156,3983.076904,4609.743652,3927.692383,3862.051270,4299.487305,4055.384521,4202.051270,4140.512695,4071.794922,4003.076904,378.000000,4.000000,,,,0.000000,4.000000,4.000000,4.000000,4.000000,4.000000,4.000000,4.000000,4.000000,4.000000,4.000000,2.000000,4.000000,4.000000,1.000000,58.333332
1601229370.907161,1.000000,0.000000,3914.358887,4633.846191,4140.512695,4255.897461,3981.538574,4616.922852,3937.948730,3859.487061,4300.512695,4053.846191,4200.512695,4142.563965,4074.358887,4004.615479,433.000000,4.000000,,,,0.000000,4.000000,4.000000,4.000000,4.000000,4.000000,4.000000,4.000000,4.000000,4.000000,4.000000,2.000000,4.000000,4.000000,1.000000,58.333332
1601229370.914884,2.000000,0.000000,3912.820557,4624.615234,4134.358887,4255.897461,3981.025635,4612.820313,3933.333252,3855.897461,4295.897461,4045.641113,4195.897461,4133.846191,4064.102539,4002.564209,386.000000,4.000000,,,,0.000000,4.000000,4.000000,4.000000,4.000000,4.000000,4.000000,4.000000,4.000000,4.000000,4.000000,2.000000,4.000000,4.000000,1.000000,58.333332
1601229370.922708,3.000000,0.000000,3908.205078,4622.563965,4132.820313,4255.384766,3985.641113,4607.179688,3924.615479,3856.410156,4296.922852,4042.564209,4196.922852,4131.282227,4060.000000,4000.512939,431.000000,4.000000,,,,0.000000,4.000000,4.000000,4.000000,4.000000,4.000000,4.000000,4.000000,4.000000,4.000000,4.000000,2.000000,4.000000,4.000000,1.000000,58.333332
1601229370.930432,4.000000,0.000000,3907.692383,4625.641113,4133.333496,4253.333496,3979.487061,4606.666504,3926.666748,3861.025635,4300.512695,4041.025635,4198.461426,4138.974121,4062.051270,4003.076904,458.000000,4.000000,,,,0.000000,4.000000,4.000000,4.000000,4.000000,4.000000,4.000000,4.000000,4.000000,4.000000,4.000000,2.000000,4.000000,4.000000,1.000000,58.333332
1601229370.938255,5.000000,0.000000,3909.743652,4628.717773,4130.769043,4254.871582,3969.743652,4608.205078,3934.871826,3862.564209,4301.538574,4042.051270,4197.948730,4142.563965,4062.051270,4000.000000,434.000000,4.000000,,,,0.000000,4.000000,4.000000,4.000000,4.000000,4.000000,4.000000,4.000000,4.000000,4.000000,4.000000,2.000000,4.000000,4.000000,1.000000,58.333332
1601229370.945979,6.000000,0.000000,3912.307617,4634.358887,4131.282227,4253.333496,3973.333252,4608.717773,3934.871826,3862.051270,4303.589844,4046.153809,4200.512695,4143.077148,4067.692383,3995.897461,449.000000,4.000000,,,,0.000000,4.000000,4.000000,4.000000,4.000000,4.000000,4.000000,4.000000,4.000000,4.000000,4.000000,2.000000,4.000000,4.000000,1.000000,58.333332
1601229370.953802,7.000000,0.000000,3914.871826,4636.922852,4141.025879,4255.384766,3985.128174,4610.256348,3929.230713,3865.128174,4311.794922,4053.333252,4206.153809,4144.102539,4076.410156,3994.871826,353.000000,4.000000,,,,0.000000,4.000000,4.000000,4.000000,4.000000,4.000000,4.000000,4.000000,4.000000,4.000000,4.000000,2.000000,4.000000,4.000000,1.000000,58.333332
1601229370.961525,8.000000,0.000000,3916.410156,4627.179688,4142.563965,4259.487305,3985.128174,4607.179688,3927.179443,3863.589844,4308.205078,4052.307617,4204.102539,4140.512695,4072.820557,3996.923096,406.000000,4.000000,,,,0.000000,4.000000,4.000000,4.000000,4.000000,4.000000,4.000000,4.000000,4.000000,4.000000,4.000000,2.000000,4.000000,4.000000,1.000000,58.333332
1601229370.969451,9.000000,0.000000,3914.871826,4622.563965,4134.358887,4260.512695,3981.538574,4603.589844,3933.846191,3858.974365,4301.538574,4043.076904,4198.974121,4138.974121,4073.333252,3997.435791,404.000000,4.000000,,,,0.000000,4.000000,4.000000,4.000000,4.000000,4.000000,4.000000,4.000000,4.000000,4.000000,4.000000,2.000000,4.000000,4.000000,1.000000,58.333332
1601229370.977276,10.000000,0.000000,3910.769287,4629.743652,4129.230957,4257.948730,3981.025635,4603.589844,3934.358887,3858.461426,4303.077148,4035.897461,4198.974121,4141.025879,4076.923096,3996.923096,427.000000,4.000000,,,,0.000000,4.000000,4.000000,4.000000,4.000000,4.000000,4.000000,4.000000,4.000000,4.000000,4.000000,2.000000,4.000000,4.000000,1.000000,58.333332
1601229370.985201,11.000000,0.000000,3910.769287,4633.846191,4133.333496,4254.871582,3982.564209,4604.615234,3930.256348,3859.487061,4301.538574,4034.358887,4200.512695,4141.025879,4073.846191,3998.974365,42.000000,4.000000,,,,0.000000,4.000000,4.000000,4.000000,4.000000,4.000000,4.000000,4.000000,4.000000,4.000000,4.000000,2.000000,4.000000,4.000000,1.000000,58.333332
1601229370.993026,12.000000,0.000000,3915.897461,4636.410156,4141.538574,4255.897461,3989.230713,4605.641113,3934.871826,3860.512939,4299.487305,4033.846191,4202.563965,4142.051270,4073.846191,4016.410156,242.000000,4.000000,,,,0.000000,4.000000,4.000000,4.000000,4.000000,4.000000,4.000000,4.000000,4.000000,4.000000,4.000000,2.000000,4.000000,4.000000,1.000000,58.333332
1601229371.000951,13.000000,0.000000,3919.487061,4644.102539,4146.153809,4262.563965,3993.846191,4607.692383,3940.000000,3863.589844,4304.615234,4033.333252,4205.128418,4142.051270,4077.435791,4028.205078,349.000000,4.000000,,,,0.000000,4.000000,4.000000,4.000000,4.000000,4.000000,4.000000,4.000000,4.000000,4.000000,4.000000,2.000000,4.000000,4.000000,1.000000,58.333332
1601229371.008776,14.000000,0.000000,3914.358887,4638.974121,4142.563965,4264.102539,3987.179443,4609.230957,3933.846191,3863.076904,4308.205078,4032.820557,4201.538574,4136.922852,4071.281982,4020.000000,427.000000,4.000000,,,,0.000000,4.000000,4.000000,4.000000,4.000000,4.000000,4.000000,4.000000,4.000000,4.000000,4.000000,2.000000,4.000000,4.000000,1.000000,58.333332
1601229371.016700,15.000000,0.000000,3905.641113,4622.051270,4135.384766,4254.358887,3980.000000,4610.769043,3929.743652,3860.512939,4306.666504,4032.820557,4197.948730,4132.820313,4067.692383,4013.333252,42.000000,4.000000,,,,0.000000,4.000000,4.000000,4.000000,4.000000,4.000000,4.000000,4.000000,4.000000,4.000000,4.000000,2.000000,4.000000,4.000000,1.000000,58.333332
1601229371.024525,16.000000,0.000000,3903.076904,4616.922852,4132.307617,4243.589844,3977.948730,4610.256348,3936.410156,3864.102539,4308.205078,4031.281982,4198.974121,4135.384766,4073.333252,4013.846191,0.000000,4.000000,,,,0.000000,4.000000,4.000000,4.000000,4.000000,4.000000,4.000000,4.000000,4.000000,4.000000,4.000000,2.000000,4.000000,4.000000,1.000000,58.333332
1601229371.032449,17.000000,0.000000,3902.564209,4624.615234,4129.230957,4241.025879,3977.435791,4607.692383,3941.025635,3868.205078,4307.179688,4026.153809,4196.410156,4141.025879,4071.794922,4001.025635,0.000000,4.000000,,,,0.000000,4.000000,4.000000,4.000000,4.000000,4.000000,4.000000,4.000000,4.000000,4.000000,4.000000,2.000000,4.000000,4.000000,1.000000,58.333332
1601229371.040274,18.000000,0.000000,3903.589844,4625.641113,4127.179688,4248.205078,3982.051270,4610.256348,3941.025635,3865.641113,4307.179688,4026.666748,4193.846191,4146.153809,4067.692383,3989.230713,0.000000,4.000000,,,,0.000000,4.000000,4.000000,4.000000,4.000000,4.000000,4.000000,4.000000,4.000000,4.000000,4.000000,2.000000,4.000000,4.000000,1.000000,58.333332
1601229371.047998,19.000000,0.000000,3910.256348,4616.922852,4129.743652,4251.794922,3983.589844,4608.205078,3940.000000,3859.487061,4305.641113,4029.230713,4200.000000,4148.717773,4071.281982,3994.871826,0.000000,4.000000,,,,0.000000,4.000000,4.000000,4.000000,4.000000,4.000000,4.000000,4.000000,4.000000,4.000000,4.000000,2.000000,4.000000,4.000000,1.000000,58.333332
1601229371.055823,20.000000,0.000000,3914.358887,4616.922852,4131.794922,4249.743652,3980.000000,4601.025879,3936.923096,3862.051270,4304.615234,4026.153809,4207.179688,4149.230957,4072.820557,3998.461426,0.000000,4.000000,,,,0.000000,4.000000,4.000000,4.000000,4.000000,4.000000,4.000000,4.000000,4.000000,4.000000,4.000000,2.000000,4.000000,4.000000,1.000000,58.333332
1601229371.063547,21.000000,0.000000,3911.281982,4624.102539,4134.358887,4246.666504,3976.923096,4604.102539,3937.435791,3866.153809,4305.641113,4022.051270,4207.179688,4150.256348,4071.281982,3998.974365,0.000000,4.000000,,,,0.000000,4.000000,4.000000,4.000000,4.000000,4.000000,4.000000,4.000000,4.000000,4.000000,4.000000,2.000000,4.000000,4.000000,1.000000,58.333332
1601229371.071371,22.000000,0.000000,3909.230713,4625.641113,4134.358887,4249.743652,3981.025635,4613.846191,3940.512939,3861.025635,4304.615234,4021.025635,4201.025879,4144.102539,4075.897461,3997.948730,0.000000,4.000000,,,,0.000000,4.000000,4.000000,4.000000,4.000000,4.000000,4.000000,4.000000,4.000000,4.000000,4.000000,2.000000,4.000000,4.000000,1.000000,58.333332
1601229371.079095,23.000000,0.000000,3910.769287,4622.051270,4132.820313,4251.794922,3983.589844,4612.307617,3938.974365,3852.820557,4300.512695,4013.846191,4192.820313,4133.333496,4071.281982,3994.358887,0.000000,4.000000,,,,0.000000,4.000000,4.000000,4.000000,4.000000,4.000000,4.000000,4.000000,4.000000,4.000000,4.000000,2.000000,4.000000,4.000000,1.000000,58.333332
1601229371.086919,24.000000,0.000000,3913.846191,4627.692383,4137.948730,4252.307617,3986.666748,4614.358887,3940.000000,3858.461426,4304.102539,4012.820557,4193.333496,4132.820313,4062.564209,3992.307617,0.000000,4.000000,,,,0.000000,4.000000,4.000000,4.000000,4.000000,4.000000,4.000000,4.000000,4.000000,4.000000,4.000000,2.000000,4.000000,4.000000,1.000000,58.333332
1601229371.094642,25.000000,0.000000,3916.410156,4631.794922,4147.692383,4250.256348,3989.230713,4616.410156,3940.512939,3865.128174,4309.230957,4017.435791,4197.948730,4140.512695,4071.281982,3997.435791,0.000000,4.000000,,,,0.000000,4.000000,4.000000,4.000000,4.000000,4.000000,4.000000,4.000000,4.000000,4.000000,4.000000,2.000000,4.000000,4.000000,1.000000,58.333332
1601229371.102466,26.000000,0.000000,3916.923096,4632.820313,4150.769043,4255.384766,3991.281982,4611.282227,3936.923096,3863.589844,4313.846191,4023.076904,4203.589844,4147.692383,4087.179443,3998.461426,0.000000,4.000000,,,,0.000000,4.000000,4.000000,4.000000,4.000000,4.000000,4.000000,4.000000,4.000000,4.000000,4.000000,2.000000,4.000000,4.000000,1.000000,58.333332
1601229371.110190,27.000000,0.000000,3918.974365,4633.846191,4148.205078,4259.487305,3985.128174,4609.743652,3938.461426,3862.564209,4319.487305,4024.102539,4207.179688,4147.179688,4081.538574,3997.435791,0.000000,4.000000,,,,0.000000,4.000000,4.000000,4.000000,4.000000,4.000000,4.000000,4.000000,4.000000,4.000000,4.000000,2.000000,4.000000,4.000000,1.000000,58.333332
1601229371.118014,28.000000,0.000000,3917.435791,4624.102539,4148.717773,4255.897461,3977.948730,4613.846191,3948.205078,3864.615479,4313.846191,4018.461426,4202.563965,4146.153809,4069.743652,3995.384521,0.000000,4.000000,,,,0.000000,4.000000,4.000000,4.000000,4.000000,4.000000,4.000000,4.000000,4.000000,4.000000,4.000000,2.000000,4.000000,4.000000,1.000000,58.333332
1601229371.125737,29.000000,0.000000,3909.230713,4617.436035,4147.179688,4251.794922,3981.538574,4610.256348,3947.179443,3862.564209,4304.102539,4015.384521,4200.000000,4146.153809,4069.230713,3995.897461,0.000000,4.000000,,,,0.000000,4.000000,4.000000,4.000000,4.000000,4.000000,4.000000,4.000000,4.000000,4.000000,4.000000,2.000000,4.000000,4.000000,1.000000,58.333332
1601229371.133560,30.000000,0.000000,3906.153809,4623.077148,4143.589844,4253.333496,3989.230713,4608.205078,3938.461426,3863.076904,4308.205078,4018.974365,4202.051270,4141.538574,4072.820557,3997.435791,0.000000,4.000000,,,,0.000000,4.000000,4.000000,4.000000,4.000000,4.000000,4.000000,4.000000,4.000000,4.000000,4.000000,2.000000,4.000000,4.000000,1.000000,58.333332
1601229371.141284,31.000000,0.000000,3909.230713,4628.205078,4145.128418,4256.922852,3990.769287,4613.846191,3934.871826,3864.615479,4314.871582,4021.025635,4200.512695,4137.436035,4071.281982,4000.000000,0.000000,4.000000,,,,0.000000,4.000000,4.000000,4.000000,4.000000,4.000000,4.000000,4.000000,4.000000,4.000000,4.000000,2.000000,4.000000,4.000000,1.000000,58.333332
1601229371.149209,32.000000,0.000000,3912.820557,4630.256348,4153.846191,4256.410156,3990.256348,4616.410156,3934.358887,3862.564209,4312.307617,4017.435791,4197.436035,4141.025879,4066.666748,3998.974365,0.000000,4.000000,,,,0.000000,4.000000,4.000000,4.000000,4.000000,4.000000,4.000000,4.000000,4.000000,4.000000,4.000000,2.000000,4.000000,4.000000,1.000000,58.333332
1601229371.157034,33.000000,0.000000,3915.384521,4636.410156,4158.974121,4257.948730,3993.333252,4616.922852,3938.461426,3864.102539,4310.769043,4019.487061,4201.538574,4146.153809,4069.230713,3994.358887,0.000000,4.000000,,,,0.000000,4.000000,4.000000,4.000000,4.000000,4.000000,4.000000,4.000000,4.000000,4.000000,4.000000,2.000000,4.000000,4.000000,1.000000,58.333332
1601229371.164959,34.000000,0.000000,3915.897461,4636.922852,4157.436035,4262.051270,3993.333252,4617.948730,3945.128174,3866.666748,4309.743652,4017.435791,4202.051270,4144.615234,4075.897461,3993.333252,0.000000,4.000000,,,,0.000000,4.000000,4.000000,4.000000,4.000000,4.000000,4.000000,4.000000,4.000000,4.000000,4.000000,2.000000,4.000000,4.000000,1.000000,58.333332
1601229371.172784,35.000000,0.000000,3914.871826,4632.820313,4154.358887,4261.538574,3992.307617,4614.871582,3945.641113,3860.000000,4304.615234,4008.718018,4196.410156,4138.974121,4073.846191,3996.410156,0.000000,4.000000,,,,0.000000,4.000000,4.000000,4.000000,4.000000,4.000000,4.000000,4.000000,4.000000,4.000000,4.000000,2.000000,4.000000,4.000000,1.000000,58.333332
1601229371.180708,36.000000,0.000000,3916.410156,4633.846191,4155.384766,4257.948730,3991.794922,4611.282227,3941.025635,3854.871826,4302.563965,4009.743652,4199.487305,4139.487305,4070.769287,3998.461426,0.000000,4.000000,,,,0.000000,4.000000,4.000000,4.000000,4.000000,4.000000,4.000000,4.000000,4.000000,4.000000,4.000000,2.000000,4.000000,4.000000,1.000000,58.333332
1601229371.188533,37.000000,0.000000,3920.512939,4640.000000,4158.974121,4264.102539,3994.358887,4612.820313,3944.102539,3864.102539,4312.307617,4021.538574,4213.333496,4145.641113,4076.923096,3995.384521,0.000000,4.000000,,,,0.000000,4.000000,4.000000,4.000000,4.000000,4.000000,4.000000,4.000000,4.000000,4.000000,4.000000,2.000000,4.000000,4.000000,1.000000,58.333332
1601229371.196458,38.000000,0.000000,3919.487061,4645.128418,4160.000000,4270.769043,3995.897461,4613.333496,3948.205078,3870.769287,4318.461426,4026.666748,4217.436035,4149.230957,4081.025635,3995.384521,0.000000,4.000000,,,,0.000000,4.000000,4.000000,4.000000,4.000000,4.000000,4.000000,4.000000,4.000000,4.000000,4.000000,2.000000,4.000000,4.000000,1.000000,58.333332
1601229371.204282,39.000000,0.000000,3917.435791,4645.641113,4158.461426,4271.282227,4002.051270,4612.820313,3949.230713,3869.743652,4321.025879,4027.692383,4209.743652,4147.179688,4085.641113,3997.435791,0.000000,4.000000,,,,0.000000,4.000000,4.000000,4.000000,4.000000,4.000000,4.000000,4.000000,4.000000,4.000000,4.000000,2.000000,4.000000,4.000000,1.000000,58.333332
1601229371.212207,40.000000,0.000000,3917.435791,4636.410156,4160.512695,4268.717773,4008.205078,4611.794922,3949.743652,3869.230713,4324.102539,4029.743652,4206.153809,4147.692383,4088.205078,3998.461426,0.000000,4.000000,,,,0.000000,4.000000,4.000000,4.000000,4.000000,4.000000,4.000000,4.000000,4.000000,4.000000,4.000000,2.000000,4.000000,4.000000,1.000000,58.333332
1601229371.220031,41.000000,0.000000,3917.948730,4635.897461,4161.538574,4270.256348,4007.692383,4614.358887,3949.743652,3870.256348,4321.025879,4029.230713,4209.743652,4150.256348,4080.512939,3994.871826,0.000000,4.000000,,,,0.000000,4.000000,4.000000,4.000000,4.000000,4.000000,4.000000,4.000000,4.000000,4.000000,4.000000,2.000000,4.000000,4.000000,1.000000,58.333332
1601229371.227955,42.000000,0.000000,3920.000000,4648.717773,4157.436035,4270.769043,4002.564209,4620.512695,3949.743652,3866.153809,4314.358887,4023.589844,4207.692383,4150.256348,4076.410156,3996.923096,0.000000,4.000000,,,,0.000000,4.000000,4.000000,4.000000,4.000000,4.000000,4.000000,4.000000,4.000000,4.000000,4.000000,2.000000,4.000000,4.000000,1.000000,58.333332
1601229371.235779,43.000000,0.000000,3920.000000,4652.820313,4157.948730,4266.153809,3998.974365,4623.077148,3951.794922,3861.538574,4315.897461,4020.512939,4206.153809,4149.743652,4084.102539,3997.435791,0.000000,4.000000,,,,0.000000,4.000000,4.000000,4.000000,4.000000,4.000000,4.000000,4.000000,4.000000,4.000000,4.000000,2.000000,4.000000,4.000000,1.000000,58.333332
1601229371.243504,44.000000,0.000000,3909.743652,4633.333496,4155.384766,4258.461426,3994.871826,4611.282227,3943.076904,3856.410156,4309.230957,4014.358887,4206.666504,4142.563965,4078.461426,3993.333252,0.000000,4.000000,,,,0.000000,4.000000,4.000000,4.000000,4.000000,4.000000,4.000000,4.000000,4.000000,4.000000,4.000000,2.000000,4.000000,4.000000,1.000000,58.333332
1601229371.251328,45.000000,0.000000,3902.051270,4622.563965,4147.692383,4256.410156,3991.794922,4601.025879,3935.384521,3851.794922,4293.333496,4008.718018,4205.128418,4138.974121,4067.179443,3990.256348,0.000000,4.000000,,,,0.000000,4.000000,4.000000,4.000000,4.000000,4.000000,4.000000,4.000000,4.000000,4.000000,4.000000,2.000000,4.000000,4.000000,1.000000,58.333332
1601229371.259052,46.000000,0.000000,3910.769287,4637.436035,4150.256348,4264.615234,3997.948730,4614.358887,3945.128174,3856.923096,4299.487305,4012.820557,4207.179688,4150.769043,4077.435791,3995.384521,0.000000,4.000000,,,,0.000000,4.000000,4.000000,4.000000,4.000000,4.000000,4.000000,4.000000,4.000000,4.000000,4.000000,2.000000,4.000000,4.000000,1.000000,58.333332
1601229371.266876,47.000000,0.000000,3920.512939,4650.256348,4162.563965,4272.307617,4005.128174,4632.820313,3956.410156,3869.230713,4317.436035,4022.564209,4213.846191,4159.487305,4090.769287,3998.461426,0.000000,4.000000,,,,0.000000,4.000000,4.000000,4.000000,4.000000,4.000000,4.000000,4.000000,4.000000,4.000000,4.000000,2.000000,4.000000,4.000000,1.000000,58.333332
1601229371.274600,48.000000,0.000000,3919.487061,4642.563965,4166.666504,4267.179688,4002.051270,4633.333496,3964.102539,3875.897461,4318.974121,4021.025635,4212.307617,4155.384766,4081.025635,3997.435791,0.000000,4.000000,,,,0.000000,4.000000,4.000000,4.000000,4.000000,4.000000,4.000000,4.000000,4.000000,4.000000,4.000000,2.000000,4.000000,4.000000,1.000000,58.333332
1601229371.282424,49.000000,0.000000,3916.923096,4630.769043,4161.538574,4257.948730,3996.410156,4626.153809,3971.281982,3877.435791,4321.538574,4015.384521,4205.641113,4150.769043,4069.230713,3994.871826,0.000000,4.000000,,,,0.000000,4.000000,4.000000,4.000000,4.000000,4.000000,4.000000,4.000000,4.000000,4.000000,4.000000,2.000000,4.000000,4.000000,1.000000,58.333332
1601229371.290148,50.000000,0.000000,3917.435791,4635.384766,4160.512695,4264.102539,4001.538574,4626.153809,3966.666748,3882.564209,4334.871582,4028.205078,4213.333496,4156.410156,4080.000000,3992.820557,0.000000,4.000000,,,,0.000000,4.000000,4.000000,4.000000,4.000000,4.000000,4.000000,4.000000,4.000000,4.000000,4.000000,2.000000,4.000000,4.000000,1.000000,58.333332
1601229371.297971,51.000000,0.000000,3918.461426,4641.538574,4162.563965,4271.282227,4004.615479,4623.589844,3954.358887,3879.487061,4332.307617,4035.897461,4221.025879,4160.000000,4088.205078,3996.410156,0.000000,4.000000,,,,0.000000,4.000000,4.000000,4.000000,4.000000,4.000000,4.000000,4.000000,4.000000,4.000000,4.000000,2.000000,4.000000,4.000000,1.000000,58.333332
1601229371.305695,52.000000,0.000000,3915.897461,4642.051270,4158.974121,4265.641113,3995.897461,4613.846191,3950.769287,3866.666748,4320.512695,4024.615479,4211.282227,4154.358887,4081.025635,3996.923096,0.000000,4.000000,,,,0.000000,4.000000,4.000000,4.000000,4.000000,4.000000,4.000000,4.000000,4.000000,4.000000,4.000000,2.000000,4.000000,4.000000,1.000000,58.333332
1601229371.313518,53.000000,0.000000,3913.333252,4643.077148,4154.871582,4260.000000,3995.897461,4607.692383,3945.641113,3865.128174,4318.974121,4020.000000,4201.538574,4150.769043,4078.461426,3992.307617,0.000000,4.000000,,,,0.000000,4.000000,4.000000,4.000000,4.000000,4.000000,4.000000,4.000000,4.000000,4.000000,4.000000,2.000000,4.000000,4.000000,1.000000,58.333332
1601229371.321241,54.000000,0.000000,3917.435791,4643.589844,4159.487305,4268.717773,4010.769287,4612.820313,3944.102539,3872.307617,4324.102539,4029.230713,4207.179688,4152.307617,4084.615479,3988.718018,0.000000,4.000000,,,,0.000000,4.000000,4.000000,4.000000,4.000000,4.000000,4.000000,4.000000,4.000000,4.000000,4.000000,2.000000,4.000000,4.000000,1.000000,58.333332
1601229371.329167,55.000000,0.000000,3920.512939,4645.128418,4161.538574,4273.846191,4010.256348,4614.871582,3943.589844,3865.128174,4316.410156,4024.102539,4211.282227,4149.743652,4080.512939,3992.307617,0.000000,4.000000,,,,0.000000,4.000000,4.000000,4.000000,4.000000,4.000000,4.000000,4.000000,4.000000,4.000000,4.000000,2.000000,4.000000,4.000000,1.000000,58.333332
1601229371.336992,56.000000,0.000000,3920.512939,4649.230957,4158.974121,4269.743652,3995.384521,4614.871582,3941.025635,3856.410156,4308.205078,4013.333252,4203.589844,4141.538574,4074.358887,3994.358887,0.000000,4.000000,,,,0.000000,4.000000,4.000000,4.000000,4.000000,4.000000,4.000000,4.000000,4.000000,4.000000,4.000000,2.000000,4.000000,4.000000,1.000000,58.333332
1601229371.344917,57.000000,0.000000,3921.538574,4643.077148,4162.051270,4268.717773,3992.307617,4617.436035,3941.025635,3860.000000,4310.256348,4012.307617,4197.948730,4140.000000,4074.358887,3994.358887,0.000000,4.000000,,,,0.000000,4.000000,4.000000,4.000000,4.000000,4.000000,4.000000,4.000000,4.000000,4.000000,4.000000,2.000000,4.000000,4.000000,1.000000,58.333332
1601229371.352742,58.000000,0.000000,3920.000000,4638.461426,4161.025879,4275.384766,4002.051270,4621.025879,3944.615479,3864.102539,4317.948730,4017.948730,4206.153809,4146.153809,4083.589844,3992.820557,0.000000,4.000000,,,,0.000000,4.000000,4.000000,4.000000,4.000000,4.000000,4.000000,4.000000,4.000000,4.000000,4.000000,2.000000,4.000000,4.000000,1.000000,58.333332
1601229371.360667,59.000000,0.000000,3919.487061,4647.692383,4155.384766,4274.358887,4005.641113,4619.487305,3945.128174,3866.666748,4323.077148,4023.589844,4218.974121,4154.871582,4095.897461,3994.871826,0.000000,4.000000,,,,0.000000,4.000000,4.000000,4.000000,4.000000,4.000000,4.000000,4.000000,4.000000,4.000000,4.000000,2.000000,4.000000,4.000000,1.000000,58.333332
1601229371.368492,60.000000,0.000000,3921.538574,4651.794922,4158.461426,4268.717773,4002.564209,4618.974121,3948.718018,3871.281982,4322.563965,4030.256348,4218.974121,4160.000000,4104.102539,3994.358887,0.000000,4.000000,,,,0.000000,4.000000,4.000000,4.000000,4.000000,4.000000,4.000000,4.000000,4.000000,4.000000,4.000000,2.000000,4.000000,4.000000,1.000000,58.333332
1601229371.376416,61.000000,0.000000,3918.461426,4643.077148,4162.051270,4266.153809,3997.948730,4618.974121,3950.769287,3868.205078,4315.384766,4027.692383,4213.333496,4157.948730,4102.563965,3993.846191,0.000000,4.000000,,,,0.000000,4.000000,4.000000,4.000000,4.000000,4.000000,4.000000,4.000000,4.000000,4.000000,4.000000,2.000000,4.000000,4.000000,1.000000,58.333332
1601229371.384241,62.000000,0.000000,3914.358887,4641.538574,4159.487305,4261.025879,3996.923096,4617.948730,3947.179443,3862.564209,4309.230957,4018.974365,4214.358887,4153.846191,4089.743652,3994.358887,0.000000,4.000000,,,,0.000000,4.000000,4.000000,4.000000,4.000000,4.000000,4.000000,4.000000,4.000000,4.000000,4.000000,2.000000,4.000000,4.000000,1.000000,58.333332
1601229371.392165,63.000000,0.000000,3912.820557,4645.128418,4160.512695,4260.512695,4000.512939,4621.025879,3949.230713,3865.128174,4313.846191,4019.487061,4215.897461,4149.230957,4074.871826,3993.333252,0.000000,4.000000,,,,0.000000,4.000000,4.000000,4.000000,4.000000,4.000000,4.000000,4.000000,4.000000,4.000000,4.000000,2.000000,4.000000,4.000000,1.000000,58.333332
1601229371.399990,64.000000,0.000000,3908.205078,4639.487305,4162.051270,4265.128418,3998.461426,4620.512695,3953.846191,3868.718018,4317.436035,4020.000000,4207.692383,4143.589844,4071.281982,3990.256348,378.000000,4.000000,,,,0.000000,4.000000,4.000000,4.000000,4.000000,4.000000,4.000000,4.000000,4.000000,4.000000,4.000000,2.000000,4.000000,4.000000,1.000000,58.333332
1601229371.407914,65.000000,0.000000,3902.564209,4632.307617,4153.333496,4261.538574,3995.897461,4617.436035,3951.281982,3865.128174,4310.769043,4014.871826,4199.487305,4139.487305,4077.948730,3986.153809,433.000000,4.000000,,,,0.000000,4.000000,4.000000,4.000000,4.000000,4.000000,4.000000,4.000000,4.000000,4.000000,4.000000,2.000000,4.000000,4.000000,1.000000,58.333332
1601229371.415738,66.000000,0.000000,3902.564209,4636.922852,4149.743652,4257.436035,4000.512939,4623.077148,3952.820557,3864.102539,4312.820313,4014.871826,4205.641113,4141.538574,4074.871826,3985.128174,386.000000,4.000000,,,,0.000000,4.000000,4.000000,4.000000,4.000000,4.000000,4.000000,4.000000,4.000000,4.000000,4.000000,2.000000,4.000000,4.000000,1.000000,58.333332
1601229371.423462,67.000000,0.000000,3901.538574,4645.128418,4151.794922,4259.487305,4000.512939,4628.205078,3960.512939,3870.769287,4322.563965,4022.051270,4212.307617,4147.179688,4067.179443,3987.179443,439.000000,4.000000,,,,0.000000,4.000000,4.000000,4.000000,4.000000,4.000000,4.000000,4.000000,4.000000,4.000000,4.000000,2.000000,4.000000,4.000000,1.000000,58.333332
1601229371.431287,68.000000,0.000000,3907.179443,4636.922852,4152.307617,4257.948730,3990.256348,4615.897461,3948.718018,3867.692383,4313.333496,4017.948730,4209.743652,4147.179688,4074.358887,3991.281982,459.000000,4.000000,,,,0.000000,4.000000,4.000000,4.000000,4.000000,4.000000,4.000000,4.000000,4.000000,4.000000,4.000000,2.000000,4.000000,4.000000,1.000000,58.333332
1601229371.439011,69.000000,0.000000,3916.410156,4634.871582,4154.358887,4262.051270,3990.769287,4606.153809,3930.256348,3858.461426,4302.051270,4010.769287,4209.743652,4144.615234,4090.769287,3996.410156,435.000000,4.000000,,,,0.000000,4.000000,4.000000,4.000000,4.000000,4.000000,4.000000,4.000000,4.000000,4.000000,4.000000,2.000000,4.000000,4.000000,1.000000,58.333332
1601229371.446835,70.000000,0.000000,3914.871826,4647.692383,4157.436035,4269.230957,3992.820557,4612.307617,3930.769287,3858.461426,4309.230957,4006.666748,4210.256348,4146.153809,4089.230713,3996.923096,447.000000,4.000000,,,,0.000000,4.000000,4.000000,4.000000,4.000000,4.000000,4.000000,4.000000,4.000000,4.000000,4.000000,2.000000,4.000000,4.000000,1.000000,58.333332
1601229371.454558,71.000000,0.000000,3909.230713,4645.641113,4156.410156,4270.256348,3991.281982,4615.897461,3941.025635,3865.128174,4317.948730,4001.538574,4206.153809,4146.153809,4075.384521,3994.358887,354.000000,4.000000,,,,0.000000,4.000000,4.000000,4.000000,4.000000,4.000000,4.000000,4.000000,4.000000,4.000000,4.000000,2.000000,4.000000,4.000000,1.000000,58.333332
1601229371.462382,72.000000,0.000000,3907.692383,4630.256348,4152.307617,4266.666504,3993.333252,4608.717773,3938.461426,3862.564209,4311.794922,3995.384521,4204.102539,4143.589844,4072.307617,3998.974365,406.000000,4.000000,,,,0.000000,4.000000,4.000000,4.000000,4.000000,4.000000,4.000000,4.000000,4.000000,4.000000,4.000000,2.000000,4.000000,4.000000,1.000000,58.333332
1601229371.470106,73.000000,0.000000,3905.641113,4631.282227,4147.692383,4268.205078,3992.820557,4612.307617,3940.000000,3859.487061,4307.179688,3992.820557,4207.179688,4145.641113,4076.923096,4002.564209,409.000000,4.000000,,,,0.000000,4.000000,4.000000,4.000000,4.000000,4.000000,4.000000,4.000000,4.000000,4.000000,4.000000,2.000000,4.000000,4.000000,1.000000,58.333332
1601229371.478031,74.000000,0.000000,3901.538574,4635.384766,4143.589844,4267.692383,3985.641113,4615.897461,3944.615479,3860.512939,4306.666504,3988.718018,4206.153809,4145.128418,4075.384521,4002.564209,427.000000,4.000000,,,,0.000000,4.000000,4.000000,4.000000,4.000000,4.000000,4.000000,4.000000,4.000000,4.000000,4.000000,2.000000,4.000000,4.000000,1.000000,58.333332
1601229371.485857,75.000000,0.000000,3903.076904,4634.358887,4146.666504,4268.717773,3986.153809,4605.641113,3936.923096,3857.948730,4302.051270,3982.564209,4202.563965,4141.025879,4071.281982,4003.589844,44.000000,4.000000,,,,0.000000,4.000000,4.000000,4.000000,4.000000,4.000000,4.000000,4.000000,4.000000,4.000000,4.000000,2.000000,4.000000,4.000000,1.000000,58.333332
1601229371.493683,76.000000,0.000000,3907.692383,4634.358887,4153.333496,4272.307617,3988.718018,4599.487305,3933.846191,3851.794922,4295.897461,3977.435791,4201.538574,4140.512695,4067.179443,4007.692383,243.000000,4.000000,,,,0.000000,4.000000,4.000000,4.000000,4.000000,4.000000,4.000000,4.000000,4.000000,4.000000,4.000000,2.000000,4.000000,4.000000,1.000000,58.333332
1601229371.501406,77.000000,0.000000,3908.205078,4633.333496,4157.436035,4270.256348,3987.692383,4606.153809,3939.487061,3851.281982,4292.820313,3976.410156,4201.538574,4144.615234,4069.743652,4005.128174,349.000000,4.000000,,,,0.000000,4.000000,4.000000,4.000000,4.000000,4.000000,4.000000,4.000000,4.000000,4.000000,4.000000,2.000000,4.000000,4.000000,1.000000,58.333332
1601229371.509229,78.000000,0.000000,3902.564209,4629.230957,4155.384766,4261.538574,3985.128174,4607.692383,3936.923096,3852.307617,4290.256348,3976.923096,4201.025879,4142.051270,4074.358887,4007.692383,427.000000,4.000000,,,,0.000000,4.000000,4.000000,4.000000,4.000000,4.000000,4.000000,4.000000,4.000000,4.000000,4.000000,2.000000,4.000000,4.000000,1.000000,58.333332
1601229371.516953,79.000000,0.000000,3897.435791,4628.205078,4153.333496,4256.410156,3981.025635,4602.563965,3936.923096,3851.281982,4287.692383,3974.871826,4197.948730,4138.461426,4069.743652,4012.820557,44.000000,4.000000,,,,0.000000,4.000000,4.000000,4.000000,4.000000,4.000000,4.000000,4.000000,4.000000,4.000000,4.000000,2.000000,4.000000,4.000000,1.000000,58.333332
1601229371.524877,80.000000,0.000000,3905.641113,4634.871582,4158.974121,4263.589844,3982.564209,4605.641113,3940.000000,3855.897461,4293.333496,3977.948730,4197.948730,4142.563965,4068.205078,4009.743652,243.000000,4.000000,,,,0.000000,4.000000,4.000000,4.000000,4.000000,4.000000,4.000000,4.000000,4.000000,4.000000,4.000000,2.000000,4.000000,4.000000,1.000000,58.333332
1601229371.532702,81.000000,0.000000,3916.923096,4640.000000,4165.128418,4271.794922,3986.153809,4610.769043,3936.923096,3862.564209,4302.051270,3984.615479,4201.025879,4149.743652,4074.358887,4008.718018,349.000000,4.000000,,,,0.000000,4.000000,4.000000,4.000000,4.000000,4.000000,4.000000,4.000000,4.000000,4.000000,4.000000,2.000000,4.000000,4.000000,1.000000,58.333332
1601229371.540627,82.000000,0.000000,3911.794922,4636.410156,4159.487305,4269.743652,3985.128174,4610.769043,3936.923096,3865.128174,4302.563965,3987.692383,4205.128418,4148.717773,4077.435791,4013.846191,427.000000,4.000000,,,,0.000000,4.000000,4.000000,4.000000,4.000000,4.000000,4.000000,4.000000,4.000000,4.000000,4.000000,2.000000,4.000000,4.000000,1.000000,58.333332
1601229371.548452,83.000000,0.000000,3902.564209,4640.000000,4153.846191,4267.179688,3989.743652,4609.743652,3937.435791,3863.589844,4303.077148,3992.307617,4208.205078,4142.051270,4080.512939,4016.410156,44.000000,4.000000,,,,0.000000,4.000000,4.000000,4.000000,4.000000,4.000000,4.000000,4.000000,4.000000,4.000000,4.000000,2.000000,4.000000,4.000000,1.000000,58.333332
1601229371.556377,84.000000,0.000000,3904.102539,4649.230957,4156.922852,4271.794922,3998.974365,4613.333496,3938.461426,3868.205078,4314.358887,4004.615479,4210.256348,4138.461426,4087.179443,4010.769287,243.000000,4.000000,,,,0.000000,4.000000,4.000000,4.000000,4.000000,4.000000,4.000000,4.000000,4.000000,4.000000,4.000000,2.000000,4.000000,4.000000,1.000000,58.333332
1601229371.564202,85.000000,0.000000,3904.615479,4644.615234,4159.487305,4271.282227,3993.846191,4617.436035,3946.666748,3873.846191,4322.563965,4008.205078,4208.205078,4140.000000,4086.666748,4008.205078,349.000000,4.000000,,,,0.000000,4.000000,4.000000,4.000000,4.000000,4.000000,4.000000,4.000000,4.000000,4.000000,4.000000,2.000000,4.000000,4.000000,1.000000,58.333332
1601229371.572126,86.000000,0.000000,3902.564209,4641.538574,4154.871582,4267.692383,3987.179443,4618.461426,3955.897461,3873.846191,4322.051270,4004.615479,4210.769043,4145.128418,4083.076904,4011.281982,427.000000,4.000000,,,,0.000000,4.000000,4.000000,4.000000,4.000000,4.000000,4.000000,4.000000,4.000000,4.000000,4.000000,2.000000,4.000000,4.000000,1.000000,58.333332
1601229371.579950,87.000000,0.000000,3906.153809,4647.692383,4155.897461,4265.641113,3993.333252,4616.922852,3950.769287,3869.230713,4319.487305,4007.179443,4215.384766,4148.717773,4082.564209,4012.307617,44.000000,4.000000,,,,0.000000,4.000000,4.000000,4.000000,4.000000,4.000000,4.000000,4.000000,4.000000,4.000000,4.000000,2.000000,4.000000,4.000000,1.000000,58.333332
1601229371.587874,88.000000,0.000000,3905.641113,4636.922852,4157.436035,4262.051270,3994.871826,4614.871582,3943.076904,3864.615479,4317.436035,4009.230713,4212.820313,4146.666504,4078.974365,4012.820557,243.000000,4.000000,,,,0.000000,4.000000,4.000000,4.000000,4.000000,4.000000,4.000000,4.000000,4.000000,4.000000,4.000000,2.000000,4.000000,4.000000,1.000000,58.333332
1601229371.595699,89.000000,0.000000,3900.000000,4621.025879,4151.794922,4257.948730,3987.692383,4608.717773,3940.512939,3861.025635,4311.282227,4000.512939,4207.179688,4145.641113,4076.410156,4025.641113,349.000000,4.000000,,,,0.000000,4.000000,4.000000,4.000000,4.000000,4.000000,4.000000,4.000000,4.000000,4.000000,4.000000,2.000000,4.000000,4.000000,1.000000,58.333332
1601229371.603423,90.000000,0.000000,3901.538574,4634.358887,4150.256348,4262.563965,3990.769287,4606.666504,3941.538574,3858.974365,4304.615234,3995.897461,4210.256348,4145.641113,4083.076904,4034.871826,427.000000,4.000000,,,,0.000000,4.000000,4.000000,4.000000,4.000000,4.000000,4.000000,4.000000,4.000000,4.000000,4.000000,2.000000,4.000000,4.000000,1.000000,58.333332
1601229371.611247,91.000000,0.000000,3903.589844,4641.538574,4152.820313,4264.102539,3989.743652,4606.153809,3938.974365,3852.820557,4293.846191,3994.358887,4208.205078,4139.487305,4081.025635,4031.794922,44.000000,4.000000,,,,0.000000,4.000000,4.000000,4.000000,4.000000,4.000000,4.000000,4.000000,4.000000,4.000000,4.000000,2.000000,4.000000,4.000000,1.000000,58.333332
1601229371.618971,92.000000,0.000000,3903.076904,4631.282227,4153.846191,4266.666504,3985.641113,4607.179688,3934.358887,3850.769287,4291.282227,3991.281982,4202.051270,4137.948730,4074.871826,4026.153809,243.000000,4.000000,,,,0.000000,4.000000,4.000000,4.000000,4.000000,4.000000,4.000000,4.000000,4.000000,4.000000,4.000000,2.000000,4.000000,4.000000,1.000000,58.333332
1601229371.626795,93.000000,0.000000,3905.128174,4636.922852,4158.461426,4272.307617,3990.769287,4609.743652,3937.435791,3858.461426,4301.025879,3991.281982,4203.589844,4144.615234,4077.948730,4023.076904,349.000000,4.000000,,,,0.000000,4.000000,4.000000,4.000000,4.000000,4.000000,4.000000,4.000000,4.000000,4.000000,4.000000,2.000000,4.000000,4.000000,1.000000,58.333332
1601229371.634519,94.000000,0.000000,3903.589844,4645.641113,4161.025879,4269.743652,3991.281982,4610.769043,3936.410156,3861.538574,4308.205078,3994.871826,4206.666504,4142.563965,4078.974365,4011.794922,427.000000,4.000000,,,,0.000000,4.000000,4.000000,4.000000,4.000000,4.000000,4.000000,4.000000,4.000000,4.000000,4.000000,2.000000,4.000000,4.000000,1.000000,58.333332
1601229371.642343,95.000000,0.000000,3900.000000,4637.948730,4154.358887,4261.025879,3979.487061,4608.717773,3933.846191,3859.487061,4307.692383,3998.461426,4206.153809,4133.846191,4077.435791,4002.564209,44.000000,4.000000,,,,0.000000,4.000000,4.000000,4.000000,4.000000,4.000000,4.000000,4.000000,4.000000,4.000000,4.000000,2.000000,4.000000,4.000000,1.000000,58.333332
1601229371.650067,96.000000,0.000000,3902.051270,4635.897461,4154.358887,4261.025879,3979.487061,4610.769043,3945.128174,3866.153809,4311.794922,4003.589844,4208.717773,4134.871582,4084.102539,4002.051270,243.000000,4.000000,,,,0.000000,4.000000,4.000000,4.000000,4.000000,4.000000,4.000000,4.000000,4.000000,4.000000,4.000000,2.000000,4.000000,4.000000,1.000000,58.333332
1601229371.657890,97.000000,0.000000,3900.000000,4637.948730,4155.897461,4262.051270,3987.692383,4618.461426,3953.333252,3866.666748,4316.922852,4007.179443,4210.769043,4133.846191,4086.153809,4001.025635,349.000000,4.000000,,,,0.000000,4.000000,4.000000,4.000000,4.000000,4.000000,4.000000,4.000000,4.000000,4.000000,4.000000,2.000000,4.000000,4.000000,1.000000,58.333332
1601229371.665614,98.000000,0.000000,3895.384521,4627.692383,4148.205078,4254.358887,3987.179443,4624.615234,3952.307617,3863.076904,4317.436035,4006.153809,4208.717773,4127.692383,4076.410156,4000.512939,427.000000,4.000000,,,,0.000000,4.000000,4.000000,4.000000,4.000000,4.000000,4.000000,4.000000,4.000000,4.000000,4.000000,2.000000,4.000000,4.000000,1.000000,58.333332
1601229371.673437,99.000000,0.000000,3899.487061,4623.589844,4143.589844,4250.256348,3988.718018,4628.717773,3958.974365,3870.769287,4321.025879,4007.179443,4210.769043,4128.205078,4077.948730,4004.102539,44.000000,4.000000,,,,0.000000,4.000000,4.000000,4.000000,4.000000,4.000000,4.000000,4.000000,4.000000,4.000000,4.000000,2.000000,4.000000,4.000000,1.000000,58.333332
1601229371.681160,100.000000,0.000000,3905.641113,4627.692383,4150.256348,4249.230957,3988.718018,4626.153809,3965.128174,3876.410156,4326.666504,4012.307617,4214.358887,4135.897461,4090.256348,4006.153809,243.000000,4.000000,,,,0.000000,4.000000,4.000000,4.000000,4.000000,4.000000,4.000000,4.000000,4.000000,4.000000,4.000000,2.000000,4.000000,4.000000,1.000000,58.333332
1601229371.688984,101.000000,0.000000,3903.589844,4628.717773,4159.487305,4251.282227,3987.179443,4623.077148,3960.000000,3874.871826,4330.256348,4015.897461,4216.410156,4144.615234,4100.000000,4004.102539,349.000000,4.000000,,,,0.000000,4.000000,4.000000,4.000000,4.000000,4.000000,4.000000,4.000000,4.000000,4.000000,4.000000,2.000000,4.000000,4.000000,1.000000,58.333332
1601229371.696707,102.000000,0.000000,3901.538574,4631.794922,4160.000000,4257.948730,3991.794922,4621.538574,3954.871826,3872.820557,4322.563965,4009.230713,4219.487305,4149.743652,4093.846191,4007.692383,427.000000,4.000000,,,,0.000000,4.000000,4.000000,4.000000,4.000000,4.000000,4.000000,4.000000,4.000000,4.000000,4.000000,2.000000,4.000000,4.000000,1.000000,58.333332
1601229371.704632,103.000000,0.000000,3906.153809,4635.897461,4155.897461,4265.128418,3992.820557,4613.333496,3950.769287,3869.743652,4309.743652,3999.487061,4218.974121,4148.205078,4078.974365,4010.769287,44.000000,4.000000,,,,0.000000,4.000000,4.000000,4.000000,4.000000,4.000000,4.000000,4.000000,4.000000,4.000000,4.000000,2.000000,4.000000,4.000000,1.000000,58.333332
1601229371.712457,104.000000,0.000000,3906.666748,4633.333496,4155.384766,4263.589844,3984.102539,4597.948730,3938.461426,3859.487061,4298.974121,3989.230713,4210.769043,4144.615234,4076.410156,4006.666748,243.000000,4.000000,,,,0.000000,4.000000,4.000000,4.000000,4.000000,4.000000,4.000000,4.000000,4.000000,4.000000,4.000000,2.000000,4.000000,4.000000,1.000000,58.333332
1601229371.720381,105.000000,0.000000,3902.564209,4635.897461,4161.025879,4264.615234,3980.512939,4595.384766,3930.769287,3852.820557,4294.871582,3983.589844,4208.717773,4145.128418,4086.153809,4002.564209,349.000000,4.000000,,,,0.000000,4.000000,4.000000,4.000000,4.000000,4.000000,4.000000,4.000000,4.000000,4.000000,4.000000,2.000000,4.000000,4.000000,1.000000,58.333332
1601229371.728206,106.000000,0.000000,3907.692383,4640.512695,4164.102539,4270.769043,3984.102539,4600.512695,3930.769287,3852.307617,4293.333496,3984.615479,4209.743652,4144.102539,4081.025635,4007.179443,427.000000,4.000000,,,,0.000000,4.000000,4.000000,4.000000,4.000000,4.000000,4.000000,4.000000,4.000000,4.000000,4.000000,2.000000,4.000000,4.000000,1.000000,58.333332
1601229371.736131,107.000000,0.000000,3912.307617,4634.871582,4165.128418,4268.205078,3985.128174,4599.487305,3930.256348,3853.333252,4293.333496,3987.692383,4208.205078,4138.461426,4072.820557,4006.666748,44.000000,4.000000,,,,0.000000,4.000000,4.000000,4.000000,4.000000,4.000000,4.000000,4.000000,4.000000,4.000000,4.000000,2.000000,4.000000,4.000000,1.000000,58.333332
1601229371.743955,108.000000,0.000000,3907.692383,4627.692383,4163.589844,4262.563965,3980.512939,4597.948730,3931.794922,3854.871826,4294.871582,3985.641113,4210.769043,4136.922852,4078.974365,4004.102539,243.000000,4.000000,,,,0.000000,4.000000,4.000000,4.000000,4.000000,4.000000,4.000000,4.000000,4.000000,4.000000,4.000000,2.000000,4.000000,4.000000,1.000000,58.333332
1601229371.751880,109.000000,0.000000,3907.692383,4634.871582,4160.512695,4267.179688,3978.974365,4604.102539,3941.025635,3861.025635,4304.615234,3990.256348,4216.410156,4138.974121,4083.589844,4005.641113,349.000000,4.000000,,,,0.000000,4.000000,4.000000,4.000000,4.000000,4.000000,4.000000,4.000000,4.000000,4.000000,4.000000,2.000000,4.000000,4.000000,1.000000,58.333332
1601229371.759704,110.000000,0.000000,3909.743652,4643.589844,4162.051270,4269.230957,3980.512939,4612.307617,3950.256348,3867.692383,4317.436035,4002.564209,4216.922852,4141.538574,4082.564209,4010.256348,427.000000,4.000000,,,,0.000000,4.000000,4.000000,4.000000,4.000000,4.000000,4.000000,4.000000,4.000000,4.000000,4.000000,2.000000,4.000000,4.000000,1.000000,58.333332
1601229371.767628,111.000000,0.000000,3906.153809,4642.051270,4163.589844,4264.102539,3991.794922,4622.563965,3961.538574,3868.205078,4328.717773,4010.256348,4218.461426,4146.666504,4093.333252,4010.769287,44.000000,4.000000,,,,0.000000,4.000000,4.000000,4.000000,4.000000,4.000000,4.000000,4.000000,4.000000,4.000000,4.000000,2.000000,4.000000,4.000000,1.000000,58.333332
1601229371.775452,112.000000,0.000000,3902.564209,4630.256348,4158.974121,4258.461426,4000.512939,4622.563965,3965.128174,3871.794922,4331.794922,4008.718018,4220.512695,4145.641113,4097.436035,4007.179443,243.000000,4.000000,,,,0.000000,4.000000,4.000000,4.000000,4.000000,4.000000,4.000000,4.000000,4.000000,4.000000,4.000000,2.000000,4.000000,4.000000,1.000000,58.333332
1601229371.783177,113.000000,0.000000,3900.512939,4619.487305,4152.307617,4251.282227,3991.281982,4611.794922,3953.333252,3875.384521,4322.051270,4002.564209,4216.922852,4140.000000,4081.025635,4006.153809,349.000000,4.000000,,,,0.000000,4.000000,4.000000,4.000000,4.000000,4.000000,4.000000,4.000000,4.000000,4.000000,4.000000,2.000000,4.000000,4.000000,1.000000,58.333332
1601229371.791001,114.000000,0.000000,3901.538574,4624.102539,4157.948730,4250.769043,3982.564209,4615.384766,3951.794922,3874.871826,4321.025879,4005.641113,4218.461426,4145.641113,4080.512939,4008.718018,427.000000,4.000000,,,,0.000000,4.000000,4.000000,4.000000,4.000000,4.000000,4.000000,4.000000,4.000000,4.000000,4.000000,2.000000,4.000000,4.000000,1.000000,58.333332
1601229371.798725,115.000000,0.000000,3911.794922,4638.461426,4165.128418,4267.179688,3987.179443,4627.179688,3964.102539,3874.871826,4331.794922,4013.333252,4224.102539,4154.358887,4098.461426,4008.205078,44.000000,4.000000,,,,0.000000,4.000000,4.000000,4.000000,4.000000,4.000000,4.000000,4.000000,4.000000,4.000000,4.000000,2.000000,4.000000,4.000000,1.000000,58.333332
1601229371.806549,116.000000,0.000000,3914.358887,4649.230957,4162.563965,4278.461426,3996.410156,4630.256348,3969.743652,3877.435791,4336.410156,4012.820557,4223.589844,4151.282227,4100.512695,4006.666748,243.000000,4.000000,,,,0.000000,4.000000,4.000000,4.000000,4.000000,4.000000,4.000000,4.000000,4.000000,4.000000,4.000000,2.000000,4.000000,4.000000,1.000000,58.333332
1601229371.814273,117.000000,0.000000,3907.692383,4647.692383,4161.025879,4272.307617,4000.000000,4624.102539,3965.641113,3874.358887,4325.641113,4004.615479,4218.974121,4148.205078,4092.307617,4008.718018,349.000000,4.000000,,,,0.000000,4.000000,4.000000,4.000000,4.000000,4.000000,4.000000,4.000000,4.000000,4.000000,4.000000,2.000000,4.000000,4.000000,1.000000,58.333332
1601229371.822096,118.000000,0.000000,3905.128174,4638.461426,4160.512695,4269.230957,3996.410156,4616.922852,3958.461426,3868.205078,4313.846191,3994.358887,4211.282227,4144.615234,4085.641113,4005.641113,427.000000,4.000000,,,,0.000000,4.000000,4.000000,4.000000,4.000000,4.000000,4.000000,4.000000,4.000000,4.000000,4.000000,2.000000,4.000000,4.000000,1.000000,58.333332
1601229371.829820,119.000000,0.000000,3902.564209,4632.820313,4156.410156,4270.256348,3985.641113,4608.205078,3946.153809,3862.564209,4304.102539,3980.512939,4203.077148,4131.794922,4071.281982,4001.025635,44.000000,4.000000,,,,0.000000,4.000000,4.000000,4.000000,4.000000,4.000000,4.000000,4.000000,4.000000,4.000000,4.000000,2.000000,4.000000,4.000000,1.000000,58.333332
1601229371.837643,120.000000,0.000000,3899.487061,4636.922852,4152.820313,4270.256348,3987.179443,4609.230957,3945.128174,3860.000000,4298.461426,3976.410156,4206.666504,4127.179688,4067.179443,4000.000000,243.000000,4.000000,,,,0.000000,4.000000,4.000000,4.000000,4.000000,4.000000,4.000000,4.000000,4.000000,4.000000,4.000000,2.000000,4.000000,4.000000,1.000000,58.333332
