title:your record name, start timestamp:1602278597.879234, stop timestamp:1602278628.150301, headset type:EPOC, headset serial:78560553, headset firmware:1e00, subject name:alzaabi.su, channels:38, sampling rate:128, samples:3872      , version:2.0
Timestamp,EEG.Counter,EEG.Interpolated,EEG.AF3,EEG.F7,EEG.F3,EEG.FC5,EEG.T7,EEG.P7,EEG.O1,EEG.O2,EEG.P8,EEG.T8,EEG.FC6,EEG.F4,EEG.F8,EEG.AF4,EEG.RawCq,EEG.Battery,MarkerIndex,MarkerType,MarkerValueInt,EEG.MarkerHardware,CQ.AF3,CQ.F7,CQ.F3,CQ.FC5,CQ.T7,CQ.P7,CQ.O1,CQ.O2,CQ.P8,CQ.T8,CQ.FC6,CQ.F4,CQ.F8,CQ.AF4,CQ.Overall
1602278597.879234,11.000000,0.000000,3912.820557,4617.948730,4164.615234,4247.692383,3894.358887,4604.102539,3966.666748,3879.487061,4310.256348,4020.000000,4203.077148,4130.769043,4078.461426,3973.333252,239.000000,4.000000,,,,0.000000,4.000000,4.000000,0.000000,4.000000,4.000000,4.000000,4.000000,4.000000,4.000000,1.000000,4.000000,4.000000,4.000000,2.000000,25.000000
1602278597.887157,12.000000,0.000000,3916.923096,4620.000000,4161.025879,4251.282227,3914.358887,4603.589844,3968.205078,3882.051270,4313.333496,4021.025635,4213.333496,4134.871582,4093.333252,3975.897461,426.000000,4.000000,,,,0.000000,4.000000,4.000000,0.000000,4.000000,4.000000,4.000000,4.000000,4.000000,4.000000,1.000000,4.000000,4.000000,4.000000,2.000000,25.000000
1602278597.894980,13.000000,0.000000,3918.461426,4625.128418,4161.025879,4265.641113,3919.487061,4603.589844,3967.179443,3878.974365,4308.717773,4020.512939,4218.974121,4142.563965,4086.666748,3977.948730,357.000000,4.000000,,,,0.000000,4.000000,4.000000,0.000000,4.000000,4.000000,4.000000,4.000000,4.000000,4.000000,1.000000,4.000000,4.000000,4.000000,2.000000,25.000000
1602278597.902703,14.000000,0.000000,3913.333252,4631.282227,4161.538574,4260.000000,3900.512939,4605.641113,3960.512939,3870.256348,4302.051270,4019.487061,4209.743652,4138.974121,4072.820557,3975.384521,445.000000,4.000000,,,,0.000000,4.000000,4.000000,0.000000,4.000000,4.000000,4.000000,4.000000,4.000000,4.000000,1.000000,4.000000,4.000000,4.000000,2.000000,25.000000
1602278597.910526,15.000000,0.000000,3912.307617,4631.282227,4160.000000,4248.717773,3902.564209,4604.102539,3958.974365,3870.256348,4304.102539,4017.948730,4204.102539,4133.846191,4087.179443,3973.333252,239.000000,4.000000,,,,0.000000,4.000000,4.000000,0.000000,4.000000,4.000000,4.000000,4.000000,4.000000,4.000000,1.000000,4.000000,4.000000,4.000000,2.000000,25.000000
1602278597.918249,16.000000,0.000000,3917.435791,4631.794922,4165.128418,4259.487305,3913.846191,4602.563965,3964.615479,3870.769287,4305.641113,4017.435791,4210.256348,4136.410156,4102.563965,3974.358887,0.000000,4.000000,,,,0.000000,4.000000,4.000000,0.000000,4.000000,4.000000,4.000000,4.000000,4.000000,4.000000,1.000000,4.000000,4.000000,4.000000,2.000000,25.000000
1602278597.926071,17.000000,0.000000,3919.487061,4635.384766,4165.641113,4270.256348,3907.692383,4607.179688,3969.743652,3869.743652,4302.051270,4018.974365,4210.769043,4135.897461,4090.256348,3975.897461,0.000000,4.000000,,,,0.000000,4.000000,4.000000,0.000000,4.000000,4.000000,4.000000,4.000000,4.000000,4.000000,1.000000,4.000000,4.000000,4.000000,2.000000,25.000000
1602278597.933794,18.000000,0.000000,3923.076904,4627.692383,4161.538574,4263.589844,3905.641113,4611.794922,3967.692383,3876.923096,4304.615234,4021.538574,4205.641113,4135.897461,4070.256348,3977.948730,0.000000,4.000000,,,,0.000000,4.000000,4.000000,0.000000,4.000000,4.000000,4.000000,4.000000,4.000000,4.000000,1.000000,4.000000,4.000000,4.000000,2.000000,25.000000
1602278597.941617,19.000000,0.000000,3928.205078,4615.897461,4165.641113,4260.000000,3906.153809,4603.589844,3960.512939,3882.051270,4309.230957,4020.512939,4208.205078,4141.025879,4067.692383,3980.000000,0.000000,4.000000,,,,0.000000,4.000000,4.000000,0.000000,4.000000,4.000000,4.000000,4.000000,4.000000,4.000000,1.000000,4.000000,4.000000,4.000000,2.000000,25.000000
1602278597.949339,20.000000,0.000000,3925.641113,4627.692383,4170.256348,4261.025879,3904.615479,4595.384766,3963.076904,3877.948730,4310.256348,4017.948730,4216.410156,4145.128418,4082.051270,3982.051270,0.000000,4.000000,,,,0.000000,4.000000,4.000000,0.000000,4.000000,4.000000,4.000000,4.000000,4.000000,4.000000,1.000000,4.000000,4.000000,4.000000,2.000000,25.000000
1602278597.957162,21.000000,0.000000,3922.051270,4647.692383,4164.102539,4255.897461,3918.974365,4607.179688,3974.358887,3885.641113,4310.769043,4018.974365,4220.000000,4147.692383,4098.461426,3985.128174,0.000000,4.000000,,,,0.000000,4.000000,4.000000,0.000000,4.000000,4.000000,4.000000,4.000000,4.000000,4.000000,1.000000,4.000000,4.000000,4.000000,2.000000,25.000000
1602278597.964884,22.000000,0.000000,3925.641113,4637.436035,4162.563965,4249.230957,3926.153809,4615.897461,3976.923096,3891.794922,4311.282227,4018.974365,4217.948730,4150.256348,4096.410156,3986.153809,0.000000,4.000000,,,,0.000000,4.000000,4.000000,0.000000,4.000000,4.000000,4.000000,4.000000,4.000000,4.000000,1.000000,4.000000,4.000000,4.000000,2.000000,25.000000
1602278597.972706,23.000000,0.000000,3933.846191,4628.205078,4169.230957,4254.871582,3913.846191,4612.307617,3977.435791,3886.153809,4310.256348,4018.461426,4218.974121,4150.769043,4093.333252,3988.718018,0.000000,4.000000,,,,0.000000,4.000000,4.000000,0.000000,4.000000,4.000000,4.000000,4.000000,4.000000,4.000000,1.000000,4.000000,4.000000,4.000000,2.000000,25.000000
1602278597.980429,24.000000,0.000000,3936.923096,4634.358887,4169.743652,4265.641113,3921.538574,4609.230957,3977.435791,3887.692383,4311.794922,4021.538574,4225.128418,4153.846191,4097.948730,3988.718018,0.000000,4.000000,,,,0.000000,4.000000,4.000000,0.000000,4.000000,4.000000,4.000000,4.000000,4.000000,4.000000,1.000000,4.000000,4.000000,4.000000,2.000000,25.000000
1602278597.988251,25.000000,0.000000,3930.256348,4622.563965,4166.666504,4258.974121,3936.923096,4605.641113,3964.615479,3888.205078,4308.205078,4022.051270,4220.000000,4148.717773,4085.641113,3981.025635,0.000000,4.000000,,,,0.000000,4.000000,4.000000,0.000000,4.000000,4.000000,4.000000,4.000000,4.000000,4.000000,1.000000,4.000000,4.000000,4.000000,2.000000,25.000000
1602278597.995973,26.000000,0.000000,3920.000000,4621.538574,4163.077148,4248.205078,3930.769287,4603.589844,3959.487061,3879.487061,4301.538574,4017.948730,4210.769043,4138.461426,4073.333252,3974.871826,0.000000,4.000000,,,,0.000000,4.000000,4.000000,0.000000,4.000000,4.000000,4.000000,4.000000,4.000000,4.000000,1.000000,4.000000,4.000000,4.000000,2.000000,25.000000
1602278598.003896,27.000000,0.000000,3918.461426,4642.051270,4162.563965,4252.307617,3927.179443,4606.153809,3967.179443,3872.307617,4300.512695,4018.974365,4208.717773,4136.922852,4084.615479,3973.333252,0.000000,4.000000,,,,0.000000,4.000000,4.000000,0.000000,4.000000,4.000000,4.000000,4.000000,4.000000,4.000000,1.000000,4.000000,4.000000,4.000000,2.000000,25.000000
1602278598.011720,28.000000,0.000000,3917.948730,4636.410156,4165.128418,4253.846191,3939.487061,4604.102539,3965.128174,3872.307617,4302.051270,4023.076904,4203.077148,4135.384766,4090.256348,3972.307617,0.000000,4.000000,,,,0.000000,4.000000,4.000000,0.000000,4.000000,4.000000,4.000000,4.000000,4.000000,4.000000,1.000000,4.000000,4.000000,4.000000,2.000000,25.000000
1602278598.019643,29.000000,0.000000,3915.384521,4611.282227,4167.179688,4249.230957,3944.102539,4603.077148,3958.974365,3875.897461,4300.000000,4019.487061,4196.922852,4134.358887,4071.281982,3973.333252,0.000000,4.000000,,,,0.000000,4.000000,4.000000,0.000000,4.000000,4.000000,4.000000,4.000000,4.000000,4.000000,1.000000,4.000000,4.000000,4.000000,2.000000,25.000000
1602278598.027466,30.000000,0.000000,3916.923096,4617.948730,4161.025879,4255.384766,3937.948730,4616.922852,3968.718018,3883.589844,4302.051270,4016.923096,4202.563965,4140.000000,4070.769287,3975.897461,0.000000,4.000000,,,,0.000000,4.000000,4.000000,0.000000,4.000000,4.000000,4.000000,4.000000,4.000000,4.000000,1.000000,4.000000,4.000000,4.000000,2.000000,25.000000
1602278598.035390,31.000000,0.000000,3918.974365,4641.025879,4158.461426,4257.436035,3942.051270,4625.128418,3979.487061,3886.666748,4309.743652,4020.512939,4209.230957,4146.153809,4089.230713,3979.487061,0.000000,4.000000,,,,0.000000,4.000000,4.000000,0.000000,4.000000,4.000000,4.000000,4.000000,4.000000,4.000000,1.000000,4.000000,4.000000,4.000000,2.000000,25.000000
1602278598.043213,32.000000,0.000000,3919.487061,4640.512695,4160.000000,4249.743652,3956.923096,4615.384766,3976.923096,3886.666748,4310.769043,4021.025635,4208.205078,4146.153809,4089.230713,3978.461426,0.000000,4.000000,,,,0.000000,4.000000,4.000000,0.000000,4.000000,4.000000,4.000000,4.000000,4.000000,4.000000,1.000000,4.000000,4.000000,4.000000,2.000000,25.000000
1602278598.051136,33.000000,0.000000,3918.461426,4629.743652,4162.563965,4250.256348,3949.230713,4608.717773,3972.307617,3886.666748,4305.641113,4018.974365,4206.153809,4142.051270,4077.435791,3975.897461,0.000000,4.000000,,,,0.000000,4.000000,4.000000,0.000000,4.000000,4.000000,4.000000,4.000000,4.000000,4.000000,1.000000,4.000000,4.000000,4.000000,2.000000,25.000000
1602278598.058960,34.000000,0.000000,3916.410156,4625.128418,4163.077148,4254.871582,3935.384521,4609.230957,3970.769287,3880.512939,4303.589844,4019.487061,4205.641113,4140.000000,4078.461426,3977.948730,0.000000,4.000000,,,,0.000000,4.000000,4.000000,0.000000,4.000000,4.000000,4.000000,4.000000,4.000000,4.000000,1.000000,4.000000,4.000000,4.000000,2.000000,25.000000
1602278598.066883,35.000000,0.000000,3914.358887,4624.615234,4165.641113,4251.282227,3947.692383,4607.692383,3969.743652,3877.948730,4303.589844,4018.974365,4204.102539,4141.538574,4079.487061,3979.487061,0.000000,4.000000,,,,0.000000,4.000000,4.000000,0.000000,4.000000,4.000000,4.000000,4.000000,4.000000,4.000000,1.000000,4.000000,4.000000,4.000000,2.000000,25.000000
1602278598.074706,36.000000,0.000000,3916.410156,4614.358887,4164.615234,4246.666504,3953.846191,4608.205078,3970.769287,3881.025635,4306.666504,4018.461426,4206.153809,4145.128418,4072.307617,3978.974365,0.000000,4.000000,,,,0.000000,4.000000,4.000000,0.000000,4.000000,4.000000,4.000000,4.000000,4.000000,4.000000,1.000000,4.000000,4.000000,4.000000,2.000000,25.000000
1602278598.082629,37.000000,0.000000,3920.000000,4612.307617,4162.563965,4252.820313,3937.948730,4610.256348,3973.333252,3882.051270,4311.282227,4020.000000,4213.333496,4146.153809,4080.512939,3979.487061,0.000000,4.000000,,,,0.000000,4.000000,4.000000,0.000000,4.000000,4.000000,4.000000,4.000000,4.000000,4.000000,1.000000,4.000000,4.000000,4.000000,2.000000,25.000000
1602278598.090452,38.000000,0.000000,3925.128174,4633.333496,4164.102539,4262.051270,3931.794922,4610.256348,3970.769287,3880.512939,4309.230957,4019.487061,4216.922852,4146.153809,4095.897461,3980.512939,0.000000,4.000000,,,,0.000000,4.000000,4.000000,0.000000,4.000000,4.000000,4.000000,4.000000,4.000000,4.000000,1.000000,4.000000,4.000000,4.000000,2.000000,25.000000
1602278598.098175,39.000000,0.000000,3929.230713,4647.179688,4166.153809,4266.153809,3940.512939,4609.230957,3967.692383,3882.051270,4306.666504,4018.461426,4215.897461,4146.153809,4093.846191,3980.512939,0.000000,4.000000,,,,0.000000,4.000000,4.000000,0.000000,4.000000,4.000000,4.000000,4.000000,4.000000,4.000000,1.000000,4.000000,4.000000,4.000000,2.000000,25.000000
1602278598.105997,40.000000,0.000000,3926.666748,4637.948730,4168.205078,4268.717773,3944.102539,4607.692383,3969.743652,3883.589844,4309.230957,4018.974365,4215.384766,4142.563965,4083.076904,3980.000000,0.000000,4.000000,,,,0.000000,4.000000,4.000000,0.000000,4.000000,4.000000,4.000000,4.000000,4.000000,4.000000,1.000000,4.000000,4.000000,4.000000,2.000000,25.000000
1602278598.113720,41.000000,0.000000,3920.000000,4630.256348,4167.692383,4265.641113,3944.615479,4605.128418,3965.641113,3883.076904,4310.256348,4018.974365,4213.333496,4136.922852,4075.384521,3975.897461,0.000000,4.000000,,,,0.000000,4.000000,4.000000,0.000000,4.000000,4.000000,4.000000,4.000000,4.000000,4.000000,1.000000,4.000000,4.000000,4.000000,2.000000,25.000000
1602278598.121543,42.000000,0.000000,3911.794922,4625.641113,4163.589844,4253.333496,3944.102539,4601.025879,3959.487061,3872.820557,4301.538574,4017.948730,4202.563965,4131.282227,4063.589844,3973.333252,0.000000,4.000000,,,,0.000000,4.000000,4.000000,0.000000,4.000000,4.000000,4.000000,4.000000,4.000000,4.000000,1.000000,4.000000,4.000000,4.000000,2.000000,25.000000
1602278598.129266,43.000000,0.000000,3910.769287,4614.871582,4161.538574,4248.205078,3942.564209,4604.615234,3965.128174,3865.641113,4292.820313,4018.461426,4194.871582,4129.230957,4060.512939,3973.333252,0.000000,4.000000,,,,0.000000,4.000000,4.000000,0.000000,4.000000,4.000000,4.000000,4.000000,4.000000,4.000000,1.000000,4.000000,4.000000,4.000000,2.000000,25.000000
1602278598.137088,44.000000,0.000000,3915.897461,4622.563965,4168.717773,4260.512695,3937.435791,4610.256348,3972.820557,3871.794922,4296.922852,4017.435791,4199.487305,4133.846191,4071.794922,3976.410156,0.000000,4.000000,,,,0.000000,4.000000,4.000000,0.000000,4.000000,4.000000,4.000000,4.000000,4.000000,4.000000,1.000000,4.000000,4.000000,4.000000,2.000000,25.000000
1602278598.144810,45.000000,0.000000,3913.333252,4636.410156,4169.230957,4267.179688,3933.846191,4611.794922,3966.153809,3876.923096,4303.589844,4015.897461,4198.974121,4132.307617,4076.410156,3974.358887,0.000000,4.000000,,,,0.000000,4.000000,4.000000,0.000000,4.000000,4.000000,4.000000,4.000000,4.000000,4.000000,1.000000,4.000000,4.000000,4.000000,2.000000,25.000000
1602278598.152633,46.000000,0.000000,3909.743652,4626.666504,4162.563965,4263.589844,3949.230713,4613.333496,3962.051270,3876.410156,4302.563965,4016.923096,4196.922852,4130.256348,4070.769287,3971.281982,0.000000,4.000000,,,,0.000000,4.000000,4.000000,0.000000,4.000000,4.000000,4.000000,4.000000,4.000000,4.000000,1.000000,4.000000,4.000000,4.000000,2.000000,25.000000
1602278598.160355,47.000000,0.000000,3914.871826,4615.897461,4160.000000,4261.538574,3963.589844,4613.333496,3969.230713,3876.410156,4301.538574,4018.461426,4203.589844,4136.922852,4068.718018,3974.871826,0.000000,4.000000,,,,0.000000,4.000000,4.000000,0.000000,4.000000,4.000000,4.000000,4.000000,4.000000,4.000000,1.000000,4.000000,4.000000,4.000000,2.000000,25.000000
1602278598.168177,48.000000,0.000000,3917.435791,4623.589844,4163.589844,4262.563965,3950.256348,4610.256348,3972.820557,3877.948730,4305.128418,4018.461426,4209.230957,4143.077148,4070.256348,3978.974365,0.000000,4.000000,,,,0.000000,4.000000,4.000000,0.000000,4.000000,4.000000,4.000000,4.000000,4.000000,4.000000,1.000000,4.000000,4.000000,4.000000,2.000000,25.000000
1602278598.175900,49.000000,0.000000,3913.846191,4628.717773,4165.128418,4263.589844,3939.487061,4612.820313,3974.871826,3883.076904,4312.820313,4017.435791,4209.230957,4143.077148,4076.923096,3976.410156,0.000000,4.000000,,,,0.000000,4.000000,4.000000,0.000000,4.000000,4.000000,4.000000,4.000000,4.000000,4.000000,1.000000,4.000000,4.000000,4.000000,2.000000,25.000000
1602278598.183823,50.000000,0.000000,3917.435791,4618.974121,4164.615234,4264.102539,3954.871826,4624.102539,3980.512939,3889.743652,4321.538574,4017.435791,4208.205078,4141.538574,4082.564209,3975.897461,0.000000,4.000000,,,,0.000000,4.000000,4.000000,0.000000,4.000000,4.000000,4.000000,4.000000,4.000000,4.000000,1.000000,4.000000,4.000000,4.000000,2.000000,25.000000
1602278598.191647,51.000000,0.000000,3922.051270,4616.922852,4162.563965,4262.563965,3963.076904,4622.051270,3979.487061,3884.615479,4320.000000,4016.923096,4202.051270,4137.948730,4075.384521,3976.923096,0.000000,4.000000,,,,0.000000,4.000000,4.000000,0.000000,4.000000,4.000000,4.000000,4.000000,4.000000,4.000000,1.000000,4.000000,4.000000,4.000000,2.000000,25.000000
1602278598.199570,52.000000,0.000000,3917.948730,4630.256348,4162.563965,4263.077148,3949.743652,4607.692383,3968.205078,3873.846191,4308.205078,4017.435791,4198.461426,4131.794922,4069.230713,3975.384521,0.000000,4.000000,,,,0.000000,4.000000,4.000000,0.000000,4.000000,4.000000,4.000000,4.000000,4.000000,4.000000,1.000000,4.000000,4.000000,4.000000,2.000000,25.000000
1602278598.207394,53.000000,0.000000,3913.846191,4638.461426,4162.563965,4264.615234,3957.435791,4605.128418,3961.025635,3872.820557,4303.077148,4016.923096,4203.077148,4132.820313,4073.846191,3976.410156,0.000000,4.000000,,,,0.000000,4.000000,4.000000,0.000000,4.000000,4.000000,4.000000,4.000000,4.000000,4.000000,1.000000,4.000000,4.000000,4.000000,2.000000,25.000000
1602278598.215317,54.000000,0.000000,3918.461426,4631.794922,4162.051270,4265.641113,3980.000000,4610.769043,3963.076904,3874.358887,4303.077148,4016.923096,4204.615234,4136.410156,4074.871826,3977.948730,0.000000,4.000000,,,,0.000000,4.000000,4.000000,0.000000,4.000000,4.000000,4.000000,4.000000,4.000000,4.000000,1.000000,4.000000,4.000000,4.000000,2.000000,25.000000
1602278598.223140,55.000000,0.000000,3922.564209,4627.179688,4161.025879,4270.769043,3971.281982,4612.307617,3965.641113,3873.846191,4300.512695,4017.435791,4200.000000,4135.384766,4075.384521,3974.871826,0.000000,4.000000,,,,0.000000,4.000000,4.000000,0.000000,4.000000,4.000000,4.000000,4.000000,4.000000,4.000000,1.000000,4.000000,4.000000,4.000000,2.000000,25.000000
1602278598.231063,56.000000,0.000000,3922.051270,4628.717773,4162.563965,4273.846191,3950.769287,4609.230957,3965.641113,3875.384521,4303.077148,4016.923096,4198.974121,4134.871582,4083.076904,3975.384521,0.000000,4.000000,,,,0.000000,4.000000,4.000000,0.000000,4.000000,4.000000,4.000000,4.000000,4.000000,4.000000,1.000000,4.000000,4.000000,4.000000,2.000000,25.000000
1602278598.238886,57.000000,0.000000,3922.564209,4634.358887,4164.615234,4269.743652,3956.923096,4611.794922,3965.128174,3879.487061,4309.743652,4016.923096,4204.615234,4138.974121,4087.179443,3982.564209,0.000000,4.000000,,,,0.000000,4.000000,4.000000,0.000000,4.000000,4.000000,4.000000,4.000000,4.000000,4.000000,1.000000,4.000000,4.000000,4.000000,2.000000,25.000000
1602278598.246809,58.000000,0.000000,3924.615479,4641.025879,4162.563965,4265.128418,3966.153809,4613.846191,3960.512939,3880.000000,4309.743652,4018.974365,4216.410156,4145.128418,4086.666748,3985.641113,0.000000,4.000000,,,,0.000000,4.000000,4.000000,0.000000,4.000000,4.000000,4.000000,4.000000,4.000000,4.000000,1.000000,4.000000,4.000000,4.000000,2.000000,25.000000
1602278598.254632,59.000000,0.000000,3925.128174,4638.461426,4166.666504,4263.589844,3955.897461,4606.666504,3954.871826,3876.410156,4302.563965,4019.487061,4220.000000,4147.179688,4085.641113,3985.641113,0.000000,4.000000,,,,0.000000,4.000000,4.000000,0.000000,4.000000,4.000000,4.000000,4.000000,4.000000,4.000000,1.000000,4.000000,4.000000,4.000000,2.000000,25.000000
1602278598.262355,60.000000,0.000000,3925.641113,4633.333496,4167.179688,4266.666504,3960.000000,4604.615234,3959.487061,3883.076904,4307.179688,4018.461426,4213.333496,4147.179688,4087.692383,3986.153809,0.000000,4.000000,,,,0.000000,4.000000,4.000000,0.000000,4.000000,4.000000,4.000000,4.000000,4.000000,4.000000,1.000000,4.000000,4.000000,4.000000,2.000000,25.000000
1602278598.270178,61.000000,0.000000,3924.615479,4627.179688,4165.641113,4268.717773,3972.307617,4607.692383,3968.718018,3888.205078,4316.922852,4018.974365,4214.871582,4150.769043,4093.333252,3984.615479,0.000000,4.000000,,,,0.000000,4.000000,4.000000,0.000000,4.000000,4.000000,4.000000,4.000000,4.000000,4.000000,1.000000,4.000000,4.000000,4.000000,2.000000,25.000000
1602278598.277901,62.000000,0.000000,3917.948730,4623.589844,4165.128418,4266.666504,3961.538574,4605.128418,3967.692383,3881.538574,4313.333496,4019.487061,4216.410156,4148.717773,4090.256348,3977.948730,0.000000,4.000000,,,,0.000000,4.000000,4.000000,0.000000,4.000000,4.000000,4.000000,4.000000,4.000000,4.000000,1.000000,4.000000,4.000000,4.000000,2.000000,25.000000
1602278598.285723,63.000000,0.000000,3914.871826,4621.538574,4167.179688,4265.128418,3948.718018,4599.487305,3961.538574,3877.948730,4305.128418,4018.461426,4204.102539,4140.512695,4076.923096,3978.461426,0.000000,4.000000,,,,0.000000,4.000000,4.000000,0.000000,4.000000,4.000000,4.000000,4.000000,4.000000,4.000000,1.000000,4.000000,4.000000,4.000000,2.000000,25.000000
1602278598.293446,64.000000,0.000000,3914.358887,4618.461426,4165.128418,4263.077148,3955.897461,4595.897461,3956.923096,3876.410156,4300.512695,4018.974365,4199.487305,4137.436035,4076.923096,3981.025635,0.000000,4.000000,,,,0.000000,4.000000,4.000000,0.000000,4.000000,4.000000,4.000000,4.000000,4.000000,4.000000,1.000000,4.000000,4.000000,4.000000,2.000000,25.000000
1602278598.301269,65.000000,0.000000,3916.410156,4618.974121,4165.641113,4260.000000,3972.307617,4603.589844,3955.897461,3877.948730,4305.641113,4019.487061,4211.794922,4142.563965,4084.615479,3978.974365,427.000000,4.000000,,,,0.000000,4.000000,4.000000,0.000000,4.000000,4.000000,4.000000,4.000000,4.000000,4.000000,1.000000,4.000000,4.000000,4.000000,2.000000,25.000000
1602278598.308991,66.000000,0.000000,3922.051270,4629.230957,4166.666504,4263.589844,3977.948730,4620.000000,3963.589844,3887.179443,4320.512695,4020.512939,4217.948730,4148.205078,4081.538574,3980.000000,388.000000,4.000000,,,,0.000000,4.000000,4.000000,0.000000,4.000000,4.000000,4.000000,4.000000,4.000000,4.000000,1.000000,4.000000,4.000000,4.000000,2.000000,25.000000
1602278598.316814,67.000000,0.000000,3924.102539,4638.461426,4165.128418,4273.333496,3967.692383,4621.025879,3971.281982,3888.718018,4324.102539,4018.974365,4209.743652,4146.153809,4082.051270,3982.564209,445.000000,4.000000,,,,0.000000,4.000000,4.000000,0.000000,4.000000,4.000000,4.000000,4.000000,4.000000,4.000000,1.000000,4.000000,4.000000,4.000000,2.000000,25.000000
1602278598.324536,68.000000,0.000000,3923.076904,4635.384766,4164.102539,4276.410156,3964.615479,4607.179688,3969.743652,3878.461426,4310.256348,4015.384521,4208.717773,4144.102539,4088.205078,3981.538574,479.000000,4.000000,,,,0.000000,4.000000,4.000000,0.000000,4.000000,4.000000,4.000000,4.000000,4.000000,4.000000,1.000000,4.000000,4.000000,4.000000,2.000000,25.000000
1602278598.332358,69.000000,0.000000,3923.589844,4633.846191,4167.179688,4277.436035,3971.281982,4607.692383,3966.666748,3877.948730,4306.666504,4016.410156,4210.256348,4146.666504,4089.743652,3982.051270,417.000000,4.000000,,,,0.000000,4.000000,4.000000,0.000000,4.000000,4.000000,4.000000,4.000000,4.000000,4.000000,1.000000,4.000000,4.000000,4.000000,2.000000,25.000000
1602278598.340081,70.000000,0.000000,3925.128174,4631.282227,4167.179688,4278.461426,3963.589844,4614.358887,3965.641113,3883.076904,4310.769043,4019.487061,4207.692383,4148.205078,4082.564209,3984.102539,471.000000,4.000000,,,,0.000000,4.000000,4.000000,0.000000,4.000000,4.000000,4.000000,4.000000,4.000000,4.000000,1.000000,4.000000,4.000000,4.000000,2.000000,25.000000
1602278598.347903,71.000000,0.000000,3924.102539,4624.102539,4162.563965,4268.205078,3964.102539,4612.820313,3968.205078,3878.974365,4308.205078,4018.461426,4210.256348,4147.179688,4073.333252,3983.076904,395.000000,4.000000,,,,0.000000,4.000000,4.000000,0.000000,4.000000,4.000000,4.000000,4.000000,4.000000,4.000000,1.000000,4.000000,4.000000,4.000000,2.000000,25.000000
1602278598.355625,72.000000,0.000000,3921.538574,4626.153809,4161.025879,4259.487305,3983.076904,4614.871582,3976.923096,3881.538574,4308.205078,4016.410156,4210.256348,4142.051270,4079.487061,3978.461426,414.000000,4.000000,,,,0.000000,4.000000,4.000000,0.000000,4.000000,4.000000,4.000000,4.000000,4.000000,4.000000,1.000000,4.000000,4.000000,4.000000,2.000000,25.000000
1602278598.363549,73.000000,0.000000,3916.410156,4632.820313,4163.077148,4262.051270,3973.333252,4612.307617,3969.230713,3882.051270,4308.717773,4016.410156,4204.102539,4134.358887,4088.718018,3974.871826,49.000000,4.000000,,,,0.000000,4.000000,4.000000,0.000000,4.000000,4.000000,4.000000,4.000000,4.000000,4.000000,1.000000,4.000000,4.000000,4.000000,2.000000,25.000000
1602278598.371373,74.000000,0.000000,3913.846191,4627.692383,4164.615234,4264.615234,3953.333252,4604.615234,3950.256348,3867.179443,4300.512695,4014.871826,4199.487305,4130.769043,4076.410156,3974.358887,445.000000,4.000000,,,,0.000000,4.000000,4.000000,0.000000,4.000000,4.000000,4.000000,4.000000,4.000000,4.000000,1.000000,4.000000,4.000000,4.000000,2.000000,25.000000
1602278598.379296,75.000000,0.000000,3916.410156,4618.974121,4163.589844,4257.948730,3964.615479,4608.205078,3956.923096,3864.615479,4291.282227,4014.358887,4197.948730,4129.230957,4061.025635,3972.820557,241.000000,4.000000,,,,0.000000,4.000000,4.000000,0.000000,4.000000,4.000000,4.000000,4.000000,4.000000,4.000000,1.000000,4.000000,4.000000,4.000000,2.000000,25.000000
1602278598.387120,76.000000,0.000000,3917.435791,4619.487305,4164.102539,4249.743652,3968.718018,4614.358887,3973.846191,3875.897461,4292.307617,4014.871826,4204.102539,4129.230957,4061.538574,3970.256348,426.000000,4.000000,,,,0.000000,4.000000,4.000000,0.000000,4.000000,4.000000,4.000000,4.000000,4.000000,4.000000,1.000000,4.000000,4.000000,4.000000,2.000000,25.000000
1602278598.395043,77.000000,0.000000,3915.384521,4618.461426,4162.563965,4246.666504,3963.589844,4609.743652,3973.333252,3881.025635,4304.102539,4014.871826,4215.897461,4134.358887,4065.641113,3971.794922,357.000000,4.000000,,,,0.000000,4.000000,4.000000,0.000000,4.000000,4.000000,4.000000,4.000000,4.000000,4.000000,1.000000,4.000000,4.000000,4.000000,2.000000,25.000000
1602278598.402867,78.000000,0.000000,3918.974365,4615.897461,4164.102539,4245.128418,3972.307617,4605.641113,3967.179443,3880.512939,4312.820313,4017.435791,4220.000000,4143.077148,4072.307617,3978.461426,445.000000,4.000000,,,,0.000000,4.000000,4.000000,0.000000,4.000000,4.000000,4.000000,4.000000,4.000000,4.000000,1.000000,4.000000,4.000000,4.000000,2.000000,25.000000
1602278598.410790,79.000000,0.000000,3920.512939,4620.000000,4166.666504,4243.077148,3966.153809,4607.692383,3968.205078,3881.025635,4310.256348,4020.512939,4220.512695,4145.128418,4078.974365,3979.487061,241.000000,4.000000,,,,0.000000,4.000000,4.000000,0.000000,4.000000,4.000000,4.000000,4.000000,4.000000,4.000000,1.000000,4.000000,4.000000,4.000000,2.000000,25.000000
1602278598.418613,80.000000,0.000000,3917.435791,4622.563965,4167.179688,4245.641113,3951.794922,4606.153809,3968.718018,3878.974365,4302.563965,4020.512939,4223.077148,4142.051270,4075.384521,3975.384521,426.000000,4.000000,,,,0.000000,4.000000,4.000000,0.000000,4.000000,4.000000,4.000000,4.000000,4.000000,4.000000,1.000000,4.000000,4.000000,4.000000,2.000000,25.000000
1602278598.426536,81.000000,0.000000,3919.487061,4622.051270,4163.077148,4250.769043,3962.051270,4605.641113,3971.281982,3878.974365,4303.077148,4019.487061,4221.538574,4142.563965,4072.820557,3974.358887,357.000000,4.000000,,,,0.000000,4.000000,4.000000,0.000000,4.000000,4.000000,4.000000,4.000000,4.000000,4.000000,1.000000,4.000000,4.000000,4.000000,2.000000,25.000000
1602278598.434359,82.000000,0.000000,3922.564209,4622.051270,4161.538574,4248.205078,3971.794922,4608.205078,3971.281982,3881.538574,4305.641113,4021.025635,4217.948730,4142.563965,4075.384521,3974.358887,445.000000,4.000000,,,,0.000000,4.000000,4.000000,0.000000,4.000000,4.000000,4.000000,4.000000,4.000000,4.000000,1.000000,4.000000,4.000000,4.000000,2.000000,25.000000
1602278598.442282,83.000000,0.000000,3918.461426,4619.487305,4164.102539,4237.436035,3958.461426,4606.153809,3966.666748,3878.461426,4304.102539,4020.000000,4216.410156,4136.410156,4075.384521,3971.281982,241.000000,4.000000,,,,0.000000,4.000000,4.000000,0.000000,4.000000,4.000000,4.000000,4.000000,4.000000,4.000000,1.000000,4.000000,4.000000,4.000000,2.000000,25.000000
1602278598.450104,84.000000,0.000000,3916.410156,4615.384766,4166.666504,4232.820313,3952.307617,4602.563965,3967.692383,3877.435791,4296.922852,4018.974365,4212.307617,4134.358887,4076.410156,3972.820557,426.000000,4.000000,,,,0.000000,4.000000,4.000000,0.000000,4.000000,4.000000,4.000000,4.000000,4.000000,4.000000,1.000000,4.000000,4.000000,4.000000,2.000000,25.000000
1602278598.457827,85.000000,0.000000,3920.512939,4620.512695,4165.128418,4236.922852,3956.923096,4606.666504,3969.230713,3880.512939,4293.333496,4020.512939,4210.256348,4140.512695,4076.410156,3977.435791,357.000000,4.000000,,,,0.000000,4.000000,4.000000,0.000000,4.000000,4.000000,4.000000,4.000000,4.000000,4.000000,1.000000,4.000000,4.000000,4.000000,2.000000,25.000000
1602278598.465650,86.000000,0.000000,3921.025635,4630.769043,4165.128418,4245.128418,3952.307617,4611.282227,3967.179443,3881.538574,4296.410156,4019.487061,4208.717773,4141.025879,4070.769287,3976.923096,445.000000,4.000000,,,,0.000000,4.000000,4.000000,0.000000,4.000000,4.000000,4.000000,4.000000,4.000000,4.000000,1.000000,4.000000,4.000000,4.000000,2.000000,25.000000
1602278598.473383,87.000000,0.000000,3918.461426,4630.256348,4168.717773,4252.820313,3944.615479,4607.179688,3968.205078,3880.000000,4295.897461,4014.358887,4209.230957,4136.922852,4065.641113,3972.820557,241.000000,4.000000,,,,0.000000,4.000000,4.000000,0.000000,4.000000,4.000000,4.000000,4.000000,4.000000,4.000000,1.000000,4.000000,4.000000,4.000000,2.000000,25.000000
1602278598.481215,88.000000,0.000000,3914.871826,4613.333496,4166.153809,4245.128418,3951.794922,4606.153809,3973.846191,3875.897461,4292.820313,4014.358887,4209.743652,4134.358887,4063.076904,3972.820557,426.000000,4.000000,,,,0.000000,4.000000,4.000000,0.000000,4.000000,4.000000,4.000000,4.000000,4.000000,4.000000,1.000000,4.000000,4.000000,4.000000,2.000000,25.000000
1602278598.489047,89.000000,0.000000,3913.333252,4602.051270,4162.563965,4234.358887,3961.538574,4614.358887,3975.897461,3877.435791,4294.358887,4020.000000,4207.179688,4132.820313,4067.692383,3975.384521,357.000000,4.000000,,,,0.000000,4.000000,4.000000,0.000000,4.000000,4.000000,4.000000,4.000000,4.000000,4.000000,1.000000,4.000000,4.000000,4.000000,2.000000,25.000000
1602278598.496880,90.000000,0.000000,3917.435791,4615.897461,4165.641113,4239.487305,3948.205078,4617.436035,3977.435791,3888.205078,4305.128418,4021.025635,4217.436035,4138.974121,4084.615479,3977.435791,445.000000,4.000000,,,,0.000000,4.000000,4.000000,0.000000,4.000000,4.000000,4.000000,4.000000,4.000000,4.000000,1.000000,4.000000,4.000000,4.000000,2.000000,25.000000
1602278598.504712,91.000000,0.000000,3920.512939,4638.461426,4170.256348,4243.077148,3929.230713,4605.128418,3975.897461,3892.307617,4312.307617,4019.487061,4225.641113,4144.615234,4095.384521,3982.564209,241.000000,4.000000,,,,0.000000,4.000000,4.000000,0.000000,4.000000,4.000000,4.000000,4.000000,4.000000,4.000000,1.000000,4.000000,4.000000,4.000000,2.000000,25.000000
1602278598.512544,92.000000,0.000000,3918.461426,4633.846191,4163.077148,4236.922852,3934.871826,4600.000000,3971.794922,3881.538574,4310.256348,4021.025635,4220.512695,4142.563965,4084.615479,3983.076904,426.000000,4.000000,,,,0.000000,4.000000,4.000000,0.000000,4.000000,4.000000,4.000000,4.000000,4.000000,4.000000,1.000000,4.000000,4.000000,4.000000,2.000000,25.000000
1602278598.520376,93.000000,0.000000,3920.512939,4616.410156,4160.000000,4241.538574,3946.666748,4610.256348,3971.794922,3880.000000,4307.179688,4022.051270,4216.410156,4143.589844,4074.871826,3981.538574,357.000000,4.000000,,,,0.000000,4.000000,4.000000,0.000000,4.000000,4.000000,4.000000,4.000000,4.000000,4.000000,1.000000,4.000000,4.000000,4.000000,2.000000,25.000000
1602278598.528297,94.000000,0.000000,3924.615479,4623.077148,4163.077148,4251.794922,3944.102539,4617.436035,3976.410156,3887.692383,4309.230957,4020.000000,4218.461426,4144.615234,4085.128174,3978.461426,445.000000,4.000000,,,,0.000000,4.000000,4.000000,0.000000,4.000000,4.000000,4.000000,4.000000,4.000000,4.000000,1.000000,4.000000,4.000000,4.000000,2.000000,25.000000
1602278598.536019,95.000000,0.000000,3926.666748,4631.794922,4164.102539,4250.256348,3952.820557,4611.282227,3974.871826,3885.128174,4308.205078,4018.974365,4218.974121,4143.589844,4093.846191,3980.000000,241.000000,4.000000,,,,0.000000,4.000000,4.000000,0.000000,4.000000,4.000000,4.000000,4.000000,4.000000,4.000000,1.000000,4.000000,4.000000,4.000000,2.000000,25.000000
1602278598.543943,96.000000,0.000000,3923.076904,4617.436035,4161.538574,4245.641113,3963.589844,4601.025879,3962.051270,3876.923096,4295.897461,4020.000000,4218.461426,4143.077148,4084.102539,3982.051270,426.000000,4.000000,,,,0.000000,4.000000,4.000000,0.000000,4.000000,4.000000,4.000000,4.000000,4.000000,4.000000,1.000000,4.000000,4.000000,4.000000,2.000000,25.000000
1602278598.551766,97.000000,0.000000,3918.461426,4612.307617,4164.615234,4246.666504,3944.615479,4599.487305,3954.871826,3874.358887,4290.256348,4020.000000,4213.846191,4137.948730,4073.333252,3982.051270,357.000000,4.000000,,,,0.000000,4.000000,4.000000,0.000000,4.000000,4.000000,4.000000,4.000000,4.000000,4.000000,1.000000,4.000000,4.000000,4.000000,2.000000,25.000000
1602278598.559690,98.000000,0.000000,3918.974365,4624.615234,4163.077148,4246.153809,3931.794922,4606.153809,3957.948730,3876.923096,4296.922852,4018.461426,4209.743652,4137.436035,4072.307617,3979.487061,445.000000,4.000000,,,,0.000000,4.000000,4.000000,0.000000,4.000000,4.000000,4.000000,4.000000,4.000000,4.000000,1.000000,4.000000,4.000000,4.000000,2.000000,25.000000
1602278598.567513,99.000000,0.000000,3921.025635,4626.153809,4162.563965,4248.205078,3947.692383,4610.769043,3959.487061,3875.384521,4298.974121,4019.487061,4209.743652,4142.051270,4070.256348,3978.461426,241.000000,4.000000,,,,0.000000,4.000000,4.000000,0.000000,4.000000,4.000000,4.000000,4.000000,4.000000,4.000000,1.000000,4.000000,4.000000,4.000000,2.000000,25.000000
1602278598.575436,100.000000,0.000000,3919.487061,4626.666504,4164.615234,4255.384766,3952.307617,4604.102539,3962.051270,3871.794922,4293.333496,4018.974365,4206.153809,4135.384766,4073.846191,3978.974365,426.000000,4.000000,,,,0.000000,4.000000,4.000000,0.000000,4.000000,4.000000,4.000000,4.000000,4.000000,4.000000,1.000000,4.000000,4.000000,4.000000,2.000000,25.000000
1602278598.583260,101.000000,0.000000,3918.974365,4626.666504,4165.128418,4255.384766,3942.051270,4600.512695,3966.153809,3874.358887,4292.307617,4015.384521,4207.692383,4130.769043,4089.230713,3978.974365,357.000000,4.000000,,,,0.000000,4.000000,4.000000,0.000000,4.000000,4.000000,4.000000,4.000000,4.000000,4.000000,1.000000,4.000000,4.000000,4.000000,2.000000,25.000000
1602278598.591183,102.000000,0.000000,3922.051270,4611.794922,4165.641113,4247.179688,3945.128174,4604.615234,3966.153809,3879.487061,4297.436035,4016.923096,4216.922852,4141.025879,4093.333252,3980.512939,445.000000,4.000000,,,,0.000000,4.000000,4.000000,0.000000,4.000000,4.000000,4.000000,4.000000,4.000000,4.000000,1.000000,4.000000,4.000000,4.000000,2.000000,25.000000
1602278598.599006,103.000000,0.000000,3922.051270,4607.179688,4164.615234,4249.743652,3941.538574,4602.051270,3963.589844,3880.000000,4296.922852,4020.512939,4217.948730,4144.615234,4078.974365,3981.025635,241.000000,4.000000,,,,0.000000,4.000000,4.000000,0.000000,4.000000,4.000000,4.000000,4.000000,4.000000,4.000000,1.000000,4.000000,4.000000,4.000000,2.000000,25.000000
1602278598.606929,104.000000,0.000000,3922.051270,4618.461426,4163.589844,4255.384766,3926.153809,4601.538574,3967.179443,3878.974365,4300.000000,4015.897461,4213.846191,4141.538574,4076.923096,3980.000000,426.000000,4.000000,,,,0.000000,4.000000,4.000000,0.000000,4.000000,4.000000,4.000000,4.000000,4.000000,4.000000,1.000000,4.000000,4.000000,4.000000,2.000000,25.000000
1602278598.614752,105.000000,0.000000,3922.051270,4622.563965,4164.615234,4248.717773,3932.307617,4609.743652,3969.230713,3881.538574,4308.205078,4014.871826,4216.922852,4144.615234,4092.307617,3981.538574,357.000000,4.000000,,,,0.000000,4.000000,4.000000,0.000000,4.000000,4.000000,4.000000,4.000000,4.000000,4.000000,1.000000,4.000000,4.000000,4.000000,2.000000,25.000000
1602278598.622475,106.000000,0.000000,3914.358887,4619.487305,4163.589844,4243.589844,3944.615479,4609.743652,3967.692383,3882.564209,4309.743652,4019.487061,4220.512695,4144.615234,4091.281982,3981.538574,445.000000,4.000000,,,,0.000000,4.000000,4.000000,0.000000,4.000000,4.000000,4.000000,4.000000,4.000000,4.000000,1.000000,4.000000,4.000000,4.000000,2.000000,25.000000
1602278598.630298,107.000000,0.000000,3908.718018,4618.974121,4161.025879,4249.743652,3944.102539,4605.128418,3967.692383,3883.076904,4304.615234,4020.512939,4218.461426,4140.512695,4075.384521,3977.948730,241.000000,4.000000,,,,0.000000,4.000000,4.000000,0.000000,4.000000,4.000000,4.000000,4.000000,4.000000,4.000000,1.000000,4.000000,4.000000,4.000000,2.000000,25.000000
1602278598.638021,108.000000,0.000000,3909.743652,4611.794922,4165.128418,4251.282227,3936.923096,4601.025879,3958.461426,3875.384521,4295.897461,4017.435791,4207.179688,4133.846191,4065.641113,3973.333252,426.000000,4.000000,,,,0.000000,4.000000,4.000000,0.000000,4.000000,4.000000,4.000000,4.000000,4.000000,4.000000,1.000000,4.000000,4.000000,4.000000,2.000000,25.000000
1602278598.645844,109.000000,0.000000,3916.410156,4607.692383,4165.641113,4249.230957,3932.307617,4591.282227,3947.692383,3861.025635,4286.153809,4016.410156,4200.000000,4128.205078,4065.641113,3972.820557,357.000000,4.000000,,,,0.000000,4.000000,4.000000,0.000000,4.000000,4.000000,4.000000,4.000000,4.000000,4.000000,1.000000,4.000000,4.000000,4.000000,2.000000,25.000000
1602278598.653566,110.000000,0.000000,3925.641113,4622.051270,4163.077148,4255.384766,3937.435791,4593.333496,3953.333252,3864.102539,4289.743652,4017.435791,4208.717773,4134.358887,4073.846191,3980.000000,445.000000,4.000000,,,,0.000000,4.000000,4.000000,0.000000,4.000000,4.000000,4.000000,4.000000,4.000000,4.000000,1.000000,4.000000,4.000000,4.000000,2.000000,25.000000
1602278598.661389,111.000000,0.000000,3930.769287,4642.563965,4164.102539,4261.538574,3953.333252,4611.794922,3963.076904,3878.461426,4302.563965,4018.461426,4218.461426,4144.615234,4087.179443,3985.128174,241.000000,4.000000,,,,0.000000,4.000000,4.000000,0.000000,4.000000,4.000000,4.000000,4.000000,4.000000,4.000000,1.000000,4.000000,4.000000,4.000000,2.000000,25.000000
1602278598.669112,112.000000,0.000000,3930.769287,4640.000000,4168.205078,4263.077148,3966.153809,4612.820313,3961.025635,3882.564209,4305.128418,4015.384521,4220.000000,4145.128418,4092.307617,3983.589844,426.000000,4.000000,,,,0.000000,4.000000,4.000000,0.000000,4.000000,4.000000,4.000000,4.000000,4.000000,4.000000,1.000000,4.000000,4.000000,4.000000,2.000000,25.000000
1602278598.676934,113.000000,0.000000,3925.641113,4622.563965,4164.615234,4260.000000,3960.000000,4600.000000,3960.512939,3880.000000,4304.615234,4012.820557,4217.436035,4141.538574,4080.000000,3980.000000,357.000000,4.000000,,,,0.000000,4.000000,4.000000,0.000000,4.000000,4.000000,4.000000,4.000000,4.000000,4.000000,1.000000,4.000000,4.000000,4.000000,2.000000,25.000000
1602278598.684657,114.000000,0.000000,3919.487061,4625.128418,4161.538574,4250.769043,3941.538574,4600.512695,3963.076904,3877.948730,4304.615234,4017.435791,4217.948730,4143.589844,4072.820557,3981.538574,445.000000,4.000000,,,,0.000000,4.000000,4.000000,0.000000,4.000000,4.000000,4.000000,4.000000,4.000000,4.000000,1.000000,4.000000,4.000000,4.000000,2.000000,25.000000
1602278598.692479,115.000000,0.000000,3915.897461,4634.358887,4162.563965,4243.589844,3931.794922,4605.128418,3959.487061,3875.897461,4303.589844,4020.512939,4221.025879,4141.025879,4084.102539,3977.948730,241.000000,4.000000,,,,0.000000,4.000000,4.000000,0.000000,4.000000,4.000000,4.000000,4.000000,4.000000,4.000000,1.000000,4.000000,4.000000,4.000000,2.000000,25.000000
1602278598.700201,116.000000,0.000000,3915.897461,4623.589844,4164.615234,4245.128418,3935.384521,4601.538574,3961.538574,3875.384521,4303.077148,4018.974365,4216.410156,4131.794922,4087.692383,3971.794922,426.000000,4.000000,,,,0.000000,4.000000,4.000000,0.000000,4.000000,4.000000,4.000000,4.000000,4.000000,4.000000,1.000000,4.000000,4.000000,4.000000,2.000000,25.000000
1602278598.708125,117.000000,0.000000,3918.974365,4613.333496,4163.589844,4248.205078,3945.641113,4599.487305,3966.666748,3874.871826,4300.000000,4018.974365,4209.230957,4132.307617,4073.846191,3974.871826,357.000000,4.000000,,,,0.000000,4.000000,4.000000,0.000000,4.000000,4.000000,4.000000,4.000000,4.000000,4.000000,1.000000,4.000000,4.000000,4.000000,2.000000,25.000000
1602278598.715949,118.000000,0.000000,3921.025635,4610.769043,4163.589844,4245.128418,3955.897461,4604.102539,3962.564209,3874.358887,4296.410156,4018.974365,4211.794922,4141.538574,4069.743652,3981.025635,445.000000,4.000000,,,,0.000000,4.000000,4.000000,0.000000,4.000000,4.000000,4.000000,4.000000,4.000000,4.000000,1.000000,4.000000,4.000000,4.000000,2.000000,25.000000
1602278598.723773,119.000000,0.000000,3923.589844,4609.230957,4165.128418,4246.153809,3947.692383,4609.230957,3965.641113,3880.512939,4302.051270,4018.461426,4217.436035,4143.077148,4081.538574,3978.974365,241.000000,4.000000,,,,0.000000,4.000000,4.000000,0.000000,4.000000,4.000000,4.000000,4.000000,4.000000,4.000000,1.000000,4.000000,4.000000,4.000000,2.000000,25.000000
1602278598.731495,120.000000,0.000000,3920.512939,4617.436035,4164.102539,4250.256348,3925.641113,4601.538574,3968.205078,3878.974365,4301.538574,4018.974365,4210.769043,4135.897461,4081.025635,3971.794922,426.000000,4.000000,,,,0.000000,4.000000,4.000000,0.000000,4.000000,4.000000,4.000000,4.000000,4.000000,4.000000,1.000000,4.000000,4.000000,4.000000,2.000000,25.000000
1602278598.739419,121.000000,0.000000,3914.358887,4619.487305,4164.615234,4246.666504,3917.435791,4585.128418,3953.846191,3862.051270,4281.025879,4015.384521,4197.948730,4129.743652,4065.128174,3969.230713,357.000000,4.000000,,,,0.000000,4.000000,4.000000,0.000000,4.000000,4.000000,4.000000,4.000000,4.000000,4.000000,1.000000,4.000000,4.000000,4.000000,2.000000,25.000000
1602278598.747242,122.000000,0.000000,3912.307617,4617.436035,4165.641113,4241.538574,3929.230713,4586.666504,3947.179443,3860.000000,4277.948730,4013.333252,4198.461426,4129.743652,4065.128174,3972.820557,445.000000,4.000000,,,,0.000000,4.000000,4.000000,0.000000,4.000000,4.000000,4.000000,4.000000,4.000000,4.000000,1.000000,4.000000,4.000000,4.000000,2.000000,25.000000
1602278598.755165,123.000000,0.000000,3916.923096,4630.769043,4165.128418,4249.743652,3946.153809,4608.205078,3957.948730,3878.461426,4301.025879,4018.974365,4213.846191,4137.948730,4078.461426,3981.025635,241.000000,4.000000,,,,0.000000,4.000000,4.000000,0.000000,4.000000,4.000000,4.000000,4.000000,4.000000,4.000000,1.000000,4.000000,4.000000,4.000000,2.000000,25.000000
1602278598.762989,124.000000,0.000000,3922.564209,4638.461426,4163.589844,4260.000000,3948.205078,4616.410156,3968.718018,3886.666748,4313.333496,4021.538574,4220.512695,4149.230957,4086.153809,3984.102539,426.000000,4.000000,,,,0.000000,4.000000,4.000000,0.000000,4.000000,4.000000,4.000000,4.000000,4.000000,4.000000,1.000000,4.000000,4.000000,4.000000,2.000000,25.000000
1602278598.770912,125.000000,0.000000,3927.692383,4626.153809,4164.102539,4254.358887,3932.820557,4611.794922,3974.358887,3883.076904,4306.153809,4018.974365,4217.436035,4152.307617,4089.230713,3984.615479,357.000000,4.000000,,,,0.000000,4.000000,4.000000,0.000000,4.000000,4.000000,4.000000,4.000000,4.000000,4.000000,1.000000,4.000000,4.000000,4.000000,2.000000,25.000000
1602278598.778735,126.000000,0.000000,3934.358887,4623.077148,4165.128418,4248.717773,3929.230713,4609.743652,3972.820557,3880.000000,4303.589844,4020.000000,4218.974121,4149.743652,4093.333252,3985.128174,445.000000,4.000000,,,,0.000000,4.000000,4.000000,0.000000,4.000000,4.000000,4.000000,4.000000,4.000000,4.000000,1.000000,4.000000,4.000000,4.000000,2.000000,25.000000
1602278598.786658,127.000000,0.000000,3933.846191,4637.436035,4167.179688,4252.307617,3936.410156,4600.512695,3961.538574,3871.794922,4301.538574,4018.974365,4216.922852,4147.692383,4088.205078,3982.051270,241.000000,4.000000,,,,0.000000,4.000000,4.000000,0.000000,4.000000,4.000000,4.000000,4.000000,4.000000,4.000000,1.000000,4.000000,4.000000,4.000000,2.000000,25.000000
1602278598.794481,128.000000,0.000000,3925.128174,4631.794922,4164.615234,4251.282227,3922.051270,4592.820313,3954.358887,3865.641113,4291.794922,4015.897461,4207.179688,4143.077148,4074.871826,3972.820557,426.000000,4.000000,,,,0.000000,4.000000,4.000000,0.000000,4.000000,4.000000,4.000000,4.000000,4.000000,4.000000,1.000000,4.000000,4.000000,4.000000,2.000000,25.000000
1602278598.802204,0.000000,0.000000,3925.128174,4615.897461,4165.128418,4249.230957,3919.487061,4601.538574,3960.512939,3870.256348,4290.769043,4017.948730,4204.615234,4142.563965,4072.820557,3973.846191,0.000000,4.000000,,,,0.000000,4.000000,4.000000,0.000000,4.000000,4.000000,4.000000,4.000000,4.000000,4.000000,1.000000,4.000000,4.000000,4.000000,2.000000,25.000000
1602278598.810027,1.000000,0.000000,3926.666748,4623.589844,4165.128418,4250.256348,3939.487061,4610.769043,3962.564209,3872.820557,4294.871582,4021.025635,4207.692383,4143.589844,4076.410156,3980.000000,427.000000,4.000000,,,,0.000000,4.000000,4.000000,0.000000,4.000000,4.000000,4.000000,4.000000,4.000000,4.000000,1.000000,4.000000,4.000000,4.000000,2.000000,25.000000
1602278598.817750,2.000000,0.000000,3915.384521,4632.820313,4163.589844,4245.128418,3931.281982,4601.025879,3955.897461,3867.179443,4289.743652,4015.897461,4203.589844,4136.410156,4066.666748,3976.923096,388.000000,4.000000,,,,0.000000,4.000000,4.000000,0.000000,4.000000,4.000000,4.000000,4.000000,4.000000,4.000000,1.000000,4.000000,4.000000,4.000000,2.000000,25.000000
1602278598.825573,3.000000,0.000000,3912.820557,4625.641113,4161.538574,4244.615234,3923.076904,4592.307617,3956.410156,3869.230713,4290.256348,4013.846191,4198.974121,4132.820313,4062.051270,3969.743652,445.000000,4.000000,,,,0.000000,4.000000,4.000000,0.000000,4.000000,4.000000,4.000000,4.000000,4.000000,4.000000,1.000000,4.000000,4.000000,4.000000,2.000000,25.000000
1602278598.833296,4.000000,0.000000,3923.589844,4619.487305,4161.025879,4252.307617,3934.358887,4598.461426,3962.051270,3870.256348,4297.948730,4016.923096,4201.025879,4140.512695,4074.871826,3971.794922,479.000000,4.000000,,,,0.000000,4.000000,4.000000,0.000000,4.000000,4.000000,4.000000,4.000000,4.000000,4.000000,1.000000,4.000000,4.000000,4.000000,2.000000,25.000000
1602278598.841118,5.000000,0.000000,3928.718018,4622.051270,4162.051270,4252.820313,3922.564209,4600.512695,3960.512939,3866.153809,4295.897461,4016.923096,4208.205078,4145.641113,4082.564209,3978.461426,417.000000,4.000000,,,,0.000000,4.000000,4.000000,0.000000,4.000000,4.000000,4.000000,4.000000,4.000000,4.000000,1.000000,4.000000,4.000000,4.000000,2.000000,25.000000
1602278598.848841,6.000000,0.000000,3932.307617,4626.153809,4165.641113,4255.384766,3907.692383,4597.436035,3957.948730,3871.281982,4291.794922,4016.923096,4214.871582,4143.589844,4084.102539,3983.589844,471.000000,4.000000,,,,0.000000,4.000000,4.000000,0.000000,4.000000,4.000000,4.000000,4.000000,4.000000,4.000000,1.000000,4.000000,4.000000,4.000000,2.000000,25.000000
1602278598.856664,7.000000,0.000000,3937.948730,4636.410156,4167.179688,4262.051270,3925.128174,4601.538574,3966.153809,3880.512939,4298.974121,4019.487061,4218.974121,4146.153809,4093.846191,3986.153809,395.000000,4.000000,,,,0.000000,4.000000,4.000000,0.000000,4.000000,4.000000,4.000000,4.000000,4.000000,4.000000,1.000000,4.000000,4.000000,4.000000,2.000000,25.000000
1602278598.864386,8.000000,0.000000,3929.230713,4638.461426,4162.563965,4253.846191,3932.307617,4609.230957,3968.205078,3879.487061,4301.538574,4020.000000,4218.461426,4148.717773,4093.333252,3984.102539,414.000000,4.000000,,,,0.000000,4.000000,4.000000,0.000000,4.000000,4.000000,4.000000,4.000000,4.000000,4.000000,1.000000,4.000000,4.000000,4.000000,2.000000,25.000000
1602278598.872208,9.000000,0.000000,3919.487061,4622.563965,4165.641113,4246.666504,3923.589844,4603.589844,3963.076904,3867.179443,4293.333496,4018.461426,4208.205078,4143.589844,4083.076904,3981.025635,49.000000,4.000000,,,,0.000000,4.000000,4.000000,0.000000,4.000000,4.000000,4.000000,4.000000,4.000000,4.000000,1.000000,4.000000,4.000000,4.000000,2.000000,25.000000
1602278598.879931,10.000000,0.000000,3921.025635,4618.974121,4170.256348,4257.436035,3932.307617,4597.948730,3965.128174,3862.051270,4290.769043,4017.948730,4200.000000,4136.410156,4080.000000,3976.923096,445.000000,4.000000,,,,0.000000,4.000000,4.000000,0.000000,4.000000,4.000000,4.000000,4.000000,4.000000,4.000000,1.000000,4.000000,4.000000,4.000000,2.000000,25.000000
1602278598.887753,11.000000,0.000000,3914.871826,4621.538574,4165.641113,4260.512695,3925.641113,4603.589844,3962.564209,3863.589844,4289.743652,4017.948730,4200.000000,4128.205078,4071.794922,3970.769287,240.000000,4.000000,,,,0.000000,4.000000,4.000000,0.000000,4.000000,4.000000,4.000000,4.000000,4.000000,4.000000,1.000000,4.000000,4.000000,4.000000,2.000000,25.000000
1602278598.895475,12.000000,0.000000,3902.564209,4616.922852,4160.512695,4243.589844,3907.692383,4600.000000,3954.358887,3861.538574,4285.128418,4011.794922,4196.410156,4123.077148,4060.000000,3966.153809,426.000000,4.000000,,,,0.000000,4.000000,4.000000,0.000000,4.000000,4.000000,4.000000,4.000000,4.000000,4.000000,1.000000,4.000000,4.000000,4.000000,2.000000,25.000000
1602278598.903297,13.000000,0.000000,3907.692383,4616.410156,4166.153809,4240.512695,3919.487061,4592.307617,3955.897461,3861.025635,4288.205078,4007.179443,4196.410156,4127.692383,4068.205078,3973.846191,357.000000,4.000000,,,,0.000000,4.000000,4.000000,0.000000,4.000000,4.000000,4.000000,4.000000,4.000000,4.000000,1.000000,4.000000,4.000000,4.000000,2.000000,25.000000
1602278598.911019,14.000000,0.000000,3922.564209,4619.487305,4166.153809,4250.256348,3931.794922,4595.384766,3958.974365,3868.205078,4297.436035,4011.281982,4206.153809,4139.487305,4077.948730,3981.025635,445.000000,4.000000,,,,0.000000,4.000000,4.000000,0.000000,4.000000,4.000000,4.000000,4.000000,4.000000,4.000000,1.000000,4.000000,4.000000,4.000000,2.000000,25.000000
1602278598.918943,15.000000,0.000000,3928.718018,4623.077148,4164.102539,4253.333496,3919.487061,4598.461426,3955.897461,3871.794922,4301.025879,4016.923096,4209.230957,4146.666504,4076.923096,3979.487061,240.000000,4.000000,,,,0.000000,4.000000,4.000000,0.000000,4.000000,4.000000,4.000000,4.000000,4.000000,4.000000,1.000000,4.000000,4.000000,4.000000,2.000000,25.000000
1602278598.926766,16.000000,0.000000,3927.179443,4624.615234,4164.102539,4255.384766,3914.871826,4593.846191,3955.897461,3871.794922,4301.025879,4015.897461,4207.179688,4145.128418,4085.128174,3978.974365,0.000000,4.000000,,,,0.000000,4.000000,4.000000,0.000000,4.000000,4.000000,4.000000,4.000000,4.000000,4.000000,1.000000,4.000000,4.000000,4.000000,2.000000,25.000000
1602278598.934689,17.000000,0.000000,3927.692383,4621.538574,4164.615234,4254.871582,3919.487061,4593.333496,3959.487061,3873.333252,4300.000000,4015.897461,4209.743652,4143.589844,4094.358887,3983.076904,0.000000,4.000000,,,,0.000000,4.000000,4.000000,0.000000,4.000000,4.000000,4.000000,4.000000,4.000000,4.000000,1.000000,4.000000,4.000000,4.000000,2.000000,25.000000
1602278598.942513,18.000000,0.000000,3930.256348,4626.153809,4162.563965,4256.410156,3918.461426,4596.410156,3959.487061,3871.281982,4297.948730,4019.487061,4214.871582,4145.641113,4089.230713,3981.538574,0.000000,4.000000,,,,0.000000,4.000000,4.000000,0.000000,4.000000,4.000000,4.000000,4.000000,4.000000,4.000000,1.000000,4.000000,4.000000,4.000000,2.000000,25.000000
1602278598.950436,19.000000,0.000000,3931.794922,4633.846191,4164.615234,4261.538574,3916.410156,4598.974121,3963.076904,3873.846191,4299.487305,4020.512939,4217.436035,4147.692383,4086.153809,3979.487061,0.000000,4.000000,,,,0.000000,4.000000,4.000000,0.000000,4.000000,4.000000,4.000000,4.000000,4.000000,4.000000,1.000000,4.000000,4.000000,4.000000,2.000000,25.000000
1602278598.958259,20.000000,0.000000,3929.743652,4626.666504,4166.153809,4255.384766,3912.307617,4602.563965,3966.666748,3881.025635,4300.000000,4018.974365,4213.846191,4147.179688,4091.794922,3980.000000,0.000000,4.000000,,,,0.000000,4.000000,4.000000,0.000000,4.000000,4.000000,4.000000,4.000000,4.000000,4.000000,1.000000,4.000000,4.000000,4.000000,2.000000,25.000000
1602278598.966182,21.000000,0.000000,3923.589844,4613.846191,4165.128418,4245.128418,3912.307617,4603.589844,3962.564209,3877.435791,4298.461426,4016.410156,4204.102539,4138.974121,4085.128174,3977.948730,0.000000,4.000000,,,,0.000000,4.000000,4.000000,0.000000,4.000000,4.000000,4.000000,4.000000,4.000000,4.000000,1.000000,4.000000,4.000000,4.000000,2.000000,25.000000
1602278598.974006,22.000000,0.000000,3922.564209,4611.794922,4164.102539,4252.307617,3921.538574,4601.025879,3958.461426,3872.307617,4298.461426,4014.871826,4202.563965,4129.743652,4072.307617,3974.358887,0.000000,4.000000,,,,0.000000,4.000000,4.000000,0.000000,4.000000,4.000000,4.000000,4.000000,4.000000,4.000000,1.000000,4.000000,4.000000,4.000000,2.000000,25.000000
1602278598.981928,23.000000,0.000000,3928.718018,4620.512695,4164.102539,4265.128418,3929.230713,4601.025879,3962.564209,3876.923096,4301.025879,4017.948730,4211.282227,4134.871582,4070.769287,3977.435791,0.000000,4.000000,,,,0.000000,4.000000,4.000000,0.000000,4.000000,4.000000,4.000000,4.000000,4.000000,4.000000,1.000000,4.000000,4.000000,4.000000,2.000000,25.000000
1602278598.989751,24.000000,0.000000,3930.256348,4630.256348,4162.051270,4266.666504,3928.205078,4600.512695,3963.589844,3877.948730,4297.436035,4019.487061,4209.230957,4141.538574,4074.358887,3978.461426,0.000000,4.000000,,,,0.000000,4.000000,4.000000,0.000000,4.000000,4.000000,4.000000,4.000000,4.000000,4.000000,1.000000,4.000000,4.000000,4.000000,2.000000,25.000000
1602278598.997474,25.000000,0.000000,3921.538574,4625.128418,4161.025879,4260.512695,3923.076904,4597.436035,3958.461426,3873.846191,4290.769043,4017.948730,4197.436035,4133.333496,4076.923096,3974.358887,0.000000,4.000000,,,,0.000000,4.000000,4.000000,0.000000,4.000000,4.000000,4.000000,4.000000,4.000000,4.000000,1.000000,4.000000,4.000000,4.000000,2.000000,25.000000
1602278599.005297,26.000000,0.000000,3916.410156,4617.436035,4163.589844,4251.794922,3919.487061,4595.897461,3960.000000,3869.230713,4290.256348,4016.410156,4192.307617,4126.153809,4080.000000,3971.794922,0.000000,4.000000,,,,0.000000,4.000000,4.000000,0.000000,4.000000,4.000000,4.000000,4.000000,4.000000,4.000000,1.000000,4.000000,4.000000,4.000000,2.000000,25.000000
1602278599.013020,27.000000,0.000000,3918.974365,4626.153809,4162.051270,4251.282227,3920.512939,4597.948730,3961.025635,3864.102539,4291.282227,4012.307617,4194.871582,4130.769043,4074.358887,3971.794922,0.000000,4.000000,,,,0.000000,4.000000,4.000000,0.000000,4.000000,4.000000,4.000000,4.000000,4.000000,4.000000,1.000000,4.000000,4.000000,4.000000,2.000000,25.000000
1602278599.020843,28.000000,0.000000,3920.000000,4625.128418,4162.563965,4251.282227,3921.025635,4592.820313,3948.205078,3859.487061,4284.615234,4006.666748,4192.820313,4130.769043,4053.846191,3973.846191,0.000000,4.000000,,,,0.000000,4.000000,4.000000,0.000000,4.000000,4.000000,4.000000,4.000000,4.000000,4.000000,1.000000,4.000000,4.000000,4.000000,2.000000,25.000000
1602278599.028565,29.000000,0.000000,3918.461426,4614.871582,4165.128418,4247.692383,3920.000000,4586.153809,3946.153809,3865.128174,4283.077148,4007.179443,4192.307617,4126.153809,4054.871826,3973.333252,0.000000,4.000000,,,,0.000000,4.000000,4.000000,0.000000,4.000000,4.000000,4.000000,4.000000,4.000000,4.000000,1.000000,4.000000,4.000000,4.000000,2.000000,25.000000
1602278599.036388,30.000000,0.000000,3922.564209,4621.025879,4167.179688,4255.384766,3922.051270,4593.333496,3958.974365,3878.461426,4297.948730,4016.410156,4205.128418,4136.410156,4087.179443,3978.461426,0.000000,4.000000,,,,0.000000,4.000000,4.000000,0.000000,4.000000,4.000000,4.000000,4.000000,4.000000,4.000000,1.000000,4.000000,4.000000,4.000000,2.000000,25.000000
1602278599.044110,31.000000,0.000000,3928.718018,4623.589844,4163.077148,4262.563965,3923.589844,4603.589844,3962.564209,3883.076904,4307.179688,4021.538574,4218.461426,4149.743652,4102.051270,3983.589844,0.000000,4.000000,,,,0.000000,4.000000,4.000000,0.000000,4.000000,4.000000,4.000000,4.000000,4.000000,4.000000,1.000000,4.000000,4.000000,4.000000,2.000000,25.000000
1602278599.051932,32.000000,0.000000,3931.794922,4617.948730,4162.563965,4261.538574,3922.051270,4597.948730,3957.948730,3880.000000,4301.025879,4020.000000,4221.025879,4151.794922,4086.666748,3985.128174,0.000000,4.000000,,,,0.000000,4.000000,4.000000,0.000000,4.000000,4.000000,4.000000,4.000000,4.000000,4.000000,1.000000,4.000000,4.000000,4.000000,2.000000,25.000000
1602278599.059655,33.000000,0.000000,3934.871826,4626.153809,4164.615234,4263.589844,3922.051270,4591.794922,3957.948730,3878.461426,4299.487305,4021.538574,4217.948730,4148.717773,4081.025635,3987.179443,0.000000,4.000000,,,,0.000000,4.000000,4.000000,0.000000,4.000000,4.000000,4.000000,4.000000,4.000000,4.000000,1.000000,4.000000,4.000000,4.000000,2.000000,25.000000
1602278599.067477,34.000000,0.000000,3937.948730,4630.256348,4167.179688,4258.974121,3922.564209,4598.461426,3961.538574,3876.923096,4304.102539,4020.000000,4217.948730,4150.256348,4088.205078,3988.205078,0.000000,4.000000,,,,0.000000,4.000000,4.000000,0.000000,4.000000,4.000000,4.000000,4.000000,4.000000,4.000000,1.000000,4.000000,4.000000,4.000000,2.000000,25.000000
1602278599.075199,35.000000,0.000000,3934.871826,4623.077148,4165.128418,4248.205078,3924.102539,4602.563965,3962.564209,3874.358887,4300.000000,4014.871826,4218.974121,4149.230957,4083.076904,3984.102539,0.000000,4.000000,,,,0.000000,4.000000,4.000000,0.000000,4.000000,4.000000,4.000000,4.000000,4.000000,4.000000,1.000000,4.000000,4.000000,4.000000,2.000000,25.000000
1602278599.083021,36.000000,0.000000,3924.615479,4618.974121,4161.538574,4247.692383,3918.461426,4593.333496,3954.871826,3870.769287,4289.230957,4011.794922,4211.282227,4139.487305,4067.179443,3975.384521,0.000000,4.000000,,,,0.000000,4.000000,4.000000,0.000000,4.000000,4.000000,4.000000,4.000000,4.000000,4.000000,1.000000,4.000000,4.000000,4.000000,2.000000,25.000000
1602278599.090743,37.000000,0.000000,3917.948730,4614.358887,4161.538574,4247.179688,3912.307617,4582.563965,3941.538574,3867.692383,4284.102539,4010.256348,4202.563965,4132.307617,4062.051270,3969.230713,0.000000,4.000000,,,,0.000000,4.000000,4.000000,0.000000,4.000000,4.000000,4.000000,4.000000,4.000000,4.000000,1.000000,4.000000,4.000000,4.000000,2.000000,25.000000
1602278599.098667,38.000000,0.000000,3921.538574,4614.871582,4163.589844,4245.128418,3925.128174,4585.641113,3945.128174,3869.230713,4286.153809,4010.769287,4209.743652,4136.410156,4074.871826,3970.769287,0.000000,4.000000,,,,0.000000,4.000000,4.000000,0.000000,4.000000,4.000000,4.000000,4.000000,4.000000,4.000000,1.000000,4.000000,4.000000,4.000000,2.000000,25.000000
1602278599.106490,39.000000,0.000000,3923.589844,4622.563965,4165.128418,4250.769043,3933.333252,4597.948730,3959.487061,3868.205078,4284.615234,4014.358887,4221.025879,4140.000000,4077.435791,3973.333252,0.000000,4.000000,,,,0.000000,4.000000,4.000000,0.000000,4.000000,4.000000,4.000000,4.000000,4.000000,4.000000,1.000000,4.000000,4.000000,4.000000,2.000000,25.000000
1602278599.114414,40.000000,0.000000,3913.333252,4623.077148,4162.563965,4239.487305,3922.564209,4598.974121,3955.384521,3861.538574,4281.538574,4013.846191,4214.358887,4135.897461,4061.025635,3972.820557,0.000000,4.000000,,,,0.000000,4.000000,4.000000,0.000000,4.000000,4.000000,4.000000,4.000000,4.000000,4.000000,1.000000,4.000000,4.000000,4.000000,2.000000,25.000000
1602278599.122237,41.000000,0.000000,3912.820557,4613.333496,4161.538574,4220.000000,3912.307617,4592.307617,3942.051270,3861.025635,4280.512695,4010.769287,4206.153809,4132.307617,4058.461426,3972.307617,0.000000,4.000000,,,,0.000000,4.000000,4.000000,0.000000,4.000000,4.000000,4.000000,4.000000,4.000000,4.000000,1.000000,4.000000,4.000000,4.000000,2.000000,25.000000
1602278599.130160,42.000000,0.000000,3924.102539,4613.846191,4166.153809,4224.615234,3908.205078,4589.743652,3946.153809,3862.564209,4276.922852,4013.333252,4213.846191,4134.358887,4071.794922,3973.846191,0.000000,4.000000,,,,0.000000,4.000000,4.000000,0.000000,4.000000,4.000000,4.000000,4.000000,4.000000,4.000000,1.000000,4.000000,4.000000,4.000000,2.000000,25.000000
1602278599.137983,43.000000,0.000000,3925.641113,4620.000000,4167.692383,4237.948730,3908.205078,4590.256348,3955.384521,3861.025635,4276.410156,4012.820557,4221.538574,4138.974121,4071.794922,3973.333252,0.000000,4.000000,,,,0.000000,4.000000,4.000000,0.000000,4.000000,4.000000,4.000000,4.000000,4.000000,4.000000,1.000000,4.000000,4.000000,4.000000,2.000000,25.000000
1602278599.145906,44.000000,0.000000,3920.000000,4616.410156,4163.077148,4234.871582,3920.512939,4596.922852,3956.410156,3868.205078,4289.743652,4013.333252,4217.948730,4141.538574,4069.230713,3972.820557,0.000000,4.000000,,,,0.000000,4.000000,4.000000,0.000000,4.000000,4.000000,4.000000,4.000000,4.000000,4.000000,1.000000,4.000000,4.000000,4.000000,2.000000,25.000000
1602278599.153729,45.000000,0.000000,3920.512939,4616.922852,4165.128418,4229.230957,3927.692383,4604.615234,3957.435791,3872.820557,4295.384766,4019.487061,4215.897461,4140.512695,4076.410156,3977.948730,0.000000,4.000000,,,,0.000000,4.000000,4.000000,0.000000,4.000000,4.000000,4.000000,4.000000,4.000000,4.000000,1.000000,4.000000,4.000000,4.000000,2.000000,25.000000
1602278599.161652,46.000000,0.000000,3921.538574,4626.153809,4166.153809,4238.974121,3919.487061,4601.538574,3960.000000,3867.179443,4284.102539,4020.512939,4221.025879,4139.487305,4080.000000,3976.923096,0.000000,4.000000,,,,0.000000,4.000000,4.000000,0.000000,4.000000,4.000000,4.000000,4.000000,4.000000,4.000000,1.000000,4.000000,4.000000,4.000000,2.000000,25.000000
1602278599.169475,47.000000,0.000000,3921.538574,4628.717773,4163.589844,4247.692383,3922.564209,4600.000000,3961.538574,3868.718018,4283.589844,4015.384521,4223.589844,4143.589844,4079.487061,3976.410156,0.000000,4.000000,,,,0.000000,4.000000,4.000000,0.000000,4.000000,4.000000,4.000000,4.000000,4.000000,4.000000,1.000000,4.000000,4.000000,4.000000,2.000000,25.000000
1602278599.177198,48.000000,0.000000,3922.564209,4621.538574,4165.128418,4240.000000,3932.820557,4604.615234,3962.051270,3876.410156,4293.333496,4016.410156,4221.025879,4144.102539,4077.948730,3975.384521,0.000000,4.000000,,,,0.000000,4.000000,4.000000,0.000000,4.000000,4.000000,4.000000,4.000000,4.000000,4.000000,1.000000,4.000000,4.000000,4.000000,2.000000,25.000000
1602278599.185021,49.000000,0.000000,3917.948730,4614.358887,4166.666504,4228.717773,3922.564209,4592.307617,3951.281982,3868.718018,4283.077148,4017.435791,4212.307617,4136.922852,4066.153809,3968.718018,0.000000,4.000000,,,,0.000000,4.000000,4.000000,0.000000,4.000000,4.000000,4.000000,4.000000,4.000000,4.000000,1.000000,4.000000,4.000000,4.000000,2.000000,25.000000
1602278599.192744,50.000000,0.000000,3913.333252,4616.410156,4161.538574,4233.846191,3913.846191,4585.128418,3946.153809,3862.564209,4274.358887,4013.333252,4206.666504,4130.769043,4060.000000,3966.153809,0.000000,4.000000,,,,0.000000,4.000000,4.000000,0.000000,4.000000,4.000000,4.000000,4.000000,4.000000,4.000000,1.000000,4.000000,4.000000,4.000000,2.000000,25.000000
1602278599.200566,51.000000,0.000000,3916.410156,4620.512695,4160.512695,4241.538574,3928.718018,4603.077148,3958.974365,3873.846191,4291.282227,4015.897461,4214.358887,4132.820313,4070.769287,3972.307617,0.000000,4.000000,,,,0.000000,4.000000,4.000000,0.000000,4.000000,4.000000,4.000000,4.000000,4.000000,4.000000,1.000000,4.000000,4.000000,4.000000,2.000000,25.000000
1602278599.208289,52.000000,0.000000,3920.000000,4624.615234,4162.051270,4234.358887,3933.846191,4609.230957,3964.102539,3882.564209,4307.692383,4020.512939,4221.538574,4137.436035,4080.512939,3974.358887,0.000000,4.000000,,,,0.000000,4.000000,4.000000,0.000000,4.000000,4.000000,4.000000,4.000000,4.000000,4.000000,1.000000,4.000000,4.000000,4.000000,2.000000,25.000000
1602278599.216111,53.000000,0.000000,3921.025635,4630.256348,4162.051270,4230.769043,3920.000000,4597.436035,3958.974365,3881.025635,4306.153809,4020.512939,4217.948730,4140.000000,4085.128174,3970.769287,0.000000,4.000000,,,,0.000000,4.000000,4.000000,0.000000,4.000000,4.000000,4.000000,4.000000,4.000000,4.000000,1.000000,4.000000,4.000000,4.000000,2.000000,25.000000
1602278599.223834,54.000000,0.000000,3917.948730,4625.641113,4166.666504,4235.897461,3920.512939,4593.846191,3959.487061,3878.974365,4298.461426,4019.487061,4217.436035,4141.025879,4090.769287,3973.846191,0.000000,4.000000,,,,0.000000,4.000000,4.000000,0.000000,4.000000,4.000000,4.000000,4.000000,4.000000,4.000000,1.000000,4.000000,4.000000,4.000000,2.000000,25.000000
1602278599.231656,55.000000,0.000000,3914.871826,4617.948730,4167.179688,4233.333496,3920.000000,4597.436035,3962.051270,3880.000000,4297.436035,4021.025635,4221.538574,4140.512695,4092.820557,3976.923096,0.000000,4.000000,,,,0.000000,4.000000,4.000000,0.000000,4.000000,4.000000,4.000000,4.000000,4.000000,4.000000,1.000000,4.000000,4.000000,4.000000,2.000000,25.000000
1602278599.239379,56.000000,0.000000,3917.435791,4617.436035,4161.025879,4232.307617,3912.820557,4603.077148,3964.102539,3881.025635,4301.025879,4020.512939,4225.128418,4143.077148,4090.769287,3976.923096,0.000000,4.000000,,,,0.000000,4.000000,4.000000,0.000000,4.000000,4.000000,4.000000,4.000000,4.000000,4.000000,1.000000,4.000000,4.000000,4.000000,2.000000,25.000000
1602278599.247201,57.000000,0.000000,3918.974365,4616.922852,4161.025879,4241.025879,3922.051270,4597.948730,3963.589844,3884.102539,4300.000000,4020.000000,4227.179688,4145.641113,4084.102539,3978.461426,0.000000,4.000000,,,,0.000000,4.000000,4.000000,0.000000,4.000000,4.000000,4.000000,4.000000,4.000000,4.000000,1.000000,4.000000,4.000000,4.000000,2.000000,25.000000
1602278599.254923,58.000000,0.000000,3921.538574,4616.410156,4168.717773,4246.153809,3928.205078,4586.153809,3957.948730,3882.564209,4290.769043,4019.487061,4219.487305,4142.051270,4076.410156,3978.461426,0.000000,4.000000,,,,0.000000,4.000000,4.000000,0.000000,4.000000,4.000000,4.000000,4.000000,4.000000,4.000000,1.000000,4.000000,4.000000,4.000000,2.000000,25.000000
1602278599.262745,59.000000,0.000000,3928.718018,4629.230957,4167.692383,4243.077148,3917.948730,4595.384766,3960.000000,3877.948730,4291.282227,4016.923096,4211.794922,4142.051270,4081.025635,3977.948730,0.000000,4.000000,,,,0.000000,4.000000,4.000000,0.000000,4.000000,4.000000,4.000000,4.000000,4.000000,4.000000,1.000000,4.000000,4.000000,4.000000,2.000000,25.000000
1602278599.270468,60.000000,0.000000,3935.897461,4636.922852,4164.615234,4248.717773,3920.000000,4612.820313,3965.128174,3880.512939,4301.538574,4017.435791,4217.948730,4150.769043,4095.897461,3981.538574,0.000000,4.000000,,,,0.000000,4.000000,4.000000,0.000000,4.000000,4.000000,4.000000,4.000000,4.000000,4.000000,1.000000,4.000000,4.000000,4.000000,2.000000,25.000000
1602278599.278391,61.000000,0.000000,3934.358887,4630.256348,4164.102539,4259.487305,3931.281982,4605.641113,3960.512939,3883.076904,4301.025879,4018.974365,4220.512695,4148.717773,4095.384521,3980.512939,0.000000,4.000000,,,,0.000000,4.000000,4.000000,0.000000,4.000000,4.000000,4.000000,4.000000,4.000000,4.000000,1.000000,4.000000,4.000000,4.000000,2.000000,25.000000
1602278599.286215,62.000000,0.000000,3925.128174,4631.794922,4164.102539,4256.410156,3926.666748,4591.282227,3955.384521,3874.358887,4291.282227,4016.410156,4205.128418,4132.820313,4077.948730,3971.281982,0.000000,4.000000,,,,0.000000,4.000000,4.000000,0.000000,4.000000,4.000000,4.000000,4.000000,4.000000,4.000000,1.000000,4.000000,4.000000,4.000000,2.000000,25.000000
1602278599.294138,63.000000,0.000000,3917.948730,4633.846191,4159.487305,4244.102539,3919.487061,4590.256348,3952.820557,3867.179443,4283.077148,4012.307617,4195.384766,4123.589844,4064.615479,3965.641113,0.000000,4.000000,,,,0.000000,4.000000,4.000000,0.000000,4.000000,4.000000,4.000000,4.000000,4.000000,4.000000,1.000000,4.000000,4.000000,4.000000,2.000000,25.000000
1602278599.301962,64.000000,0.000000,3921.538574,4630.256348,4160.000000,4245.641113,3926.153809,4594.871582,3955.384521,3876.923096,4285.641113,4014.358887,4201.538574,4131.282227,4064.102539,3970.256348,0.000000,4.000000,,,,0.000000,4.000000,4.000000,0.000000,4.000000,4.000000,4.000000,4.000000,4.000000,4.000000,1.000000,4.000000,4.000000,4.000000,2.000000,25.000000
1602278599.309885,65.000000,0.000000,3923.076904,4630.769043,4162.563965,4251.794922,3928.205078,4597.948730,3960.512939,3883.076904,4294.871582,4015.384521,4203.589844,4135.897461,4072.307617,3972.820557,427.000000,4.000000,,,,0.000000,4.000000,4.000000,0.000000,4.000000,4.000000,4.000000,4.000000,4.000000,4.000000,1.000000,4.000000,4.000000,4.000000,2.000000,25.000000
1602278599.317708,66.000000,0.000000,3916.923096,4616.922852,4163.589844,4240.000000,3916.410156,4592.307617,3958.461426,3875.897461,4291.794922,4010.769287,4197.436035,4130.256348,4070.256348,3972.307617,388.000000,4.000000,,,,0.000000,4.000000,4.000000,0.000000,4.000000,4.000000,4.000000,4.000000,4.000000,4.000000,1.000000,4.000000,4.000000,4.000000,2.000000,25.000000
1602278599.325631,67.000000,0.000000,3923.076904,4601.538574,4163.077148,4234.358887,3914.871826,4589.743652,3958.974365,3872.820557,4289.230957,4013.333252,4203.589844,4134.358887,4066.153809,3975.384521,445.000000,4.000000,,,,0.000000,4.000000,4.000000,0.000000,4.000000,4.000000,4.000000,4.000000,4.000000,4.000000,1.000000,4.000000,4.000000,4.000000,2.000000,25.000000
1602278599.333454,68.000000,0.000000,3936.923096,4613.333496,4164.102539,4249.743652,3923.589844,4597.436035,3967.179443,3879.487061,4301.025879,4020.000000,4215.384766,4145.641113,4080.512939,3979.487061,479.000000,4.000000,,,,0.000000,4.000000,4.000000,0.000000,4.000000,4.000000,4.000000,4.000000,4.000000,4.000000,1.000000,4.000000,4.000000,4.000000,2.000000,25.000000
1602278599.341377,69.000000,0.000000,3933.846191,4630.769043,4162.563965,4252.820313,3916.410156,4598.974121,3967.692383,3889.230713,4312.820313,4016.410156,4216.922852,4148.717773,4098.974121,3978.974365,417.000000,4.000000,,,,0.000000,4.000000,4.000000,0.000000,4.000000,4.000000,4.000000,4.000000,4.000000,4.000000,1.000000,4.000000,4.000000,4.000000,2.000000,25.000000
1602278599.349200,70.000000,0.000000,3926.666748,4626.153809,4162.051270,4243.589844,3913.333252,4594.871582,3966.153809,3891.794922,4310.256348,4013.333252,4221.025879,4147.179688,4101.025879,3978.461426,471.000000,4.000000,,,,0.000000,4.000000,4.000000,0.000000,4.000000,4.000000,4.000000,4.000000,4.000000,4.000000,1.000000,4.000000,4.000000,4.000000,2.000000,25.000000
1602278599.357123,71.000000,0.000000,3929.230713,4618.461426,4167.692383,4248.717773,3929.743652,4601.025879,3975.384521,3886.153809,4302.563965,4019.487061,4229.230957,4152.307617,4098.974121,3980.512939,395.000000,4.000000,,,,0.000000,4.000000,4.000000,0.000000,4.000000,4.000000,4.000000,4.000000,4.000000,4.000000,1.000000,4.000000,4.000000,4.000000,2.000000,25.000000
1602278599.364946,72.000000,0.000000,3926.666748,4616.922852,4168.717773,4250.256348,3932.307617,4610.769043,3976.410156,3886.153809,4300.512695,4021.538574,4221.538574,4151.282227,4096.410156,3975.897461,414.000000,4.000000,,,,0.000000,4.000000,4.000000,0.000000,4.000000,4.000000,4.000000,4.000000,4.000000,4.000000,1.000000,4.000000,4.000000,4.000000,2.000000,25.000000
1602278599.372669,73.000000,0.000000,3917.948730,4613.846191,4164.615234,4238.974121,3916.923096,4605.641113,3963.589844,3886.153809,4294.871582,4014.871826,4204.615234,4136.922852,4076.410156,3967.692383,49.000000,4.000000,,,,0.000000,4.000000,4.000000,0.000000,4.000000,4.000000,4.000000,4.000000,4.000000,4.000000,1.000000,4.000000,4.000000,4.000000,2.000000,25.000000
1602278599.380491,74.000000,0.000000,3914.871826,4614.871582,4163.077148,4239.487305,3916.923096,4596.922852,3958.461426,3875.897461,4288.205078,4013.333252,4200.000000,4128.717773,4060.512939,3965.641113,445.000000,4.000000,,,,0.000000,4.000000,4.000000,0.000000,4.000000,4.000000,4.000000,4.000000,4.000000,4.000000,1.000000,4.000000,4.000000,4.000000,2.000000,25.000000
1602278599.388214,75.000000,0.000000,3917.948730,4616.922852,4166.666504,4242.051270,3928.718018,4596.410156,3961.538574,3873.333252,4288.205078,4012.307617,4202.051270,4129.743652,4061.538574,3969.230713,239.000000,4.000000,,,,0.000000,4.000000,4.000000,0.000000,4.000000,4.000000,4.000000,4.000000,4.000000,4.000000,1.000000,4.000000,4.000000,4.000000,2.000000,25.000000
1602278599.396036,76.000000,0.000000,3918.461426,4619.487305,4164.615234,4237.948730,3928.205078,4600.512695,3963.589844,3883.589844,4299.487305,4009.230713,4199.487305,4130.256348,4068.205078,3970.256348,426.000000,4.000000,,,,0.000000,4.000000,4.000000,0.000000,4.000000,4.000000,4.000000,4.000000,4.000000,4.000000,1.000000,4.000000,4.000000,4.000000,2.000000,25.000000
1602278599.403759,77.000000,0.000000,3920.000000,4628.205078,4164.615234,4245.641113,3925.128174,4603.077148,3969.230713,3893.333252,4310.256348,4015.384521,4205.128418,4135.384766,4082.564209,3974.358887,357.000000,4.000000,,,,0.000000,4.000000,4.000000,0.000000,4.000000,4.000000,4.000000,4.000000,4.000000,4.000000,1.000000,4.000000,4.000000,4.000000,2.000000,25.000000
1602278599.411582,78.000000,0.000000,3924.615479,4632.307617,4163.589844,4253.846191,3935.384521,4607.179688,3976.923096,3906.153809,4317.436035,4022.051270,4222.051270,4146.666504,4099.487305,3979.487061,445.000000,4.000000,,,,0.000000,4.000000,4.000000,0.000000,4.000000,4.000000,4.000000,4.000000,4.000000,4.000000,1.000000,4.000000,4.000000,4.000000,2.000000,25.000000
1602278599.419304,79.000000,0.000000,3925.128174,4629.230957,4161.025879,4243.077148,3940.000000,4611.282227,3977.948730,3912.307617,4322.563965,4020.000000,4230.256348,4152.307617,4098.461426,3979.487061,239.000000,4.000000,,,,0.000000,4.000000,4.000000,0.000000,4.000000,4.000000,4.000000,4.000000,4.000000,4.000000,1.000000,4.000000,4.000000,4.000000,2.000000,25.000000
1602278599.427126,80.000000,0.000000,3917.948730,4618.461426,4160.512695,4235.384766,3924.102539,4606.153809,3974.871826,3902.051270,4316.922852,4018.461426,4221.538574,4145.128418,4086.666748,3972.307617,426.000000,4.000000,,,,0.000000,4.000000,4.000000,0.000000,4.000000,4.000000,4.000000,4.000000,4.000000,4.000000,1.000000,4.000000,4.000000,4.000000,2.000000,25.000000
1602278599.434849,81.000000,0.000000,3913.846191,4600.512695,4165.641113,4240.512695,3912.820557,4602.051270,3974.358887,3894.871826,4309.743652,4020.512939,4212.307617,4135.897461,4080.000000,3969.230713,357.000000,4.000000,,,,0.000000,4.000000,4.000000,0.000000,4.000000,4.000000,4.000000,4.000000,4.000000,4.000000,1.000000,4.000000,4.000000,4.000000,2.000000,25.000000
1602278599.442671,82.000000,0.000000,3921.538574,4603.077148,4166.153809,4242.563965,3922.564209,4611.282227,3978.974365,3901.538574,4318.461426,4020.000000,4213.846191,4140.000000,4082.051270,3972.820557,445.000000,4.000000,,,,0.000000,4.000000,4.000000,0.000000,4.000000,4.000000,4.000000,4.000000,4.000000,4.000000,1.000000,4.000000,4.000000,4.000000,2.000000,25.000000
1602278599.450393,83.000000,0.000000,3923.589844,4621.538574,4163.589844,4238.461426,3927.179443,4613.846191,3983.589844,3904.102539,4322.051270,4019.487061,4214.871582,4144.615234,4093.846191,3974.358887,239.000000,4.000000,,,,0.000000,4.000000,4.000000,0.000000,4.000000,4.000000,4.000000,4.000000,4.000000,4.000000,1.000000,4.000000,4.000000,4.000000,2.000000,25.000000
1602278599.458316,84.000000,0.000000,3917.435791,4622.563965,4163.589844,4237.436035,3921.025635,4601.025879,3976.923096,3892.820557,4307.179688,4020.000000,4212.307617,4135.897461,4094.871826,3970.256348,426.000000,4.000000,,,,0.000000,4.000000,4.000000,0.000000,4.000000,4.000000,4.000000,4.000000,4.000000,4.000000,1.000000,4.000000,4.000000,4.000000,2.000000,25.000000
1602278599.466140,85.000000,0.000000,3919.487061,4612.307617,4165.128418,4242.563965,3927.692383,4597.948730,3969.743652,3889.743652,4303.077148,4019.487061,4212.307617,4136.922852,4081.538574,3972.820557,357.000000,4.000000,,,,0.000000,4.000000,4.000000,0.000000,4.000000,4.000000,4.000000,4.000000,4.000000,4.000000,1.000000,4.000000,4.000000,4.000000,2.000000,25.000000
1602278599.474063,86.000000,0.000000,3925.641113,4612.307617,4164.102539,4245.641113,3935.897461,4603.077148,3972.820557,3896.410156,4311.794922,4020.000000,4208.205078,4146.153809,4080.000000,3978.974365,445.000000,4.000000,,,,0.000000,4.000000,4.000000,0.000000,4.000000,4.000000,4.000000,4.000000,4.000000,4.000000,1.000000,4.000000,4.000000,4.000000,2.000000,25.000000
1602278599.481887,87.000000,0.000000,3922.564209,4617.436035,4164.102539,4246.153809,3925.128174,4602.051270,3969.743652,3890.769287,4308.717773,4019.487061,4201.025879,4137.948730,4086.153809,3972.820557,239.000000,4.000000,,,,0.000000,4.000000,4.000000,0.000000,4.000000,4.000000,4.000000,4.000000,4.000000,4.000000,1.000000,4.000000,4.000000,4.000000,2.000000,25.000000
1602278599.489810,88.000000,0.000000,3916.923096,4621.538574,4163.077148,4247.692383,3924.102539,4598.461426,3962.051270,3880.000000,4298.974121,4020.000000,4204.102539,4130.256348,4084.102539,3965.641113,426.000000,4.000000,,,,0.000000,4.000000,4.000000,0.000000,4.000000,4.000000,4.000000,4.000000,4.000000,4.000000,1.000000,4.000000,4.000000,4.000000,2.000000,25.000000
1602278599.497633,89.000000,0.000000,3919.487061,4622.563965,4164.615234,4251.282227,3938.974365,4602.563965,3967.692383,3879.487061,4296.410156,4020.000000,4215.897461,4140.512695,4086.153809,3970.769287,357.000000,4.000000,,,,0.000000,4.000000,4.000000,0.000000,4.000000,4.000000,4.000000,4.000000,4.000000,4.000000,1.000000,4.000000,4.000000,4.000000,2.000000,25.000000
1602278599.505556,90.000000,0.000000,3922.564209,4621.538574,4167.692383,4254.871582,3935.897461,4610.769043,3976.410156,3883.589844,4297.436035,4019.487061,4218.974121,4142.563965,4090.256348,3974.358887,445.000000,4.000000,,,,0.000000,4.000000,4.000000,0.000000,4.000000,4.000000,4.000000,4.000000,4.000000,4.000000,1.000000,4.000000,4.000000,4.000000,2.000000,25.000000
1602278599.513379,91.000000,0.000000,3918.461426,4629.743652,4162.051270,4250.256348,3925.641113,4612.307617,3976.410156,3889.743652,4303.589844,4019.487061,4211.282227,4132.820313,4081.538574,3967.179443,239.000000,4.000000,,,,0.000000,4.000000,4.000000,0.000000,4.000000,4.000000,4.000000,4.000000,4.000000,4.000000,1.000000,4.000000,4.000000,4.000000,2.000000,25.000000
1602278599.521302,92.000000,0.000000,3914.871826,4628.717773,4163.077148,4238.461426,3933.333252,4611.282227,3976.923096,3897.948730,4315.897461,4020.512939,4208.717773,4136.410156,4078.974365,3966.666748,426.000000,4.000000,,,,0.000000,4.000000,4.000000,0.000000,4.000000,4.000000,4.000000,4.000000,4.000000,4.000000,1.000000,4.000000,4.000000,4.000000,2.000000,25.000000
1602278599.529125,93.000000,0.000000,3915.897461,4610.769043,4166.666504,4236.922852,3940.512939,4613.333496,3977.435791,3897.948730,4319.487305,4021.025635,4213.846191,4145.641113,4088.205078,3973.846191,357.000000,4.000000,,,,0.000000,4.000000,4.000000,0.000000,4.000000,4.000000,4.000000,4.000000,4.000000,4.000000,1.000000,4.000000,4.000000,4.000000,2.000000,25.000000
1602278599.537048,94.000000,0.000000,3920.512939,4607.179688,4167.179688,4243.589844,3929.743652,4611.794922,3975.384521,3896.410156,4317.436035,4021.025635,4221.025879,4146.153809,4096.410156,3976.410156,445.000000,4.000000,,,,0.000000,4.000000,4.000000,0.000000,4.000000,4.000000,4.000000,4.000000,4.000000,4.000000,1.000000,4.000000,4.000000,4.000000,2.000000,25.000000
1602278599.544871,95.000000,0.000000,3925.128174,4618.974121,4164.615234,4245.641113,3921.025635,4602.563965,3973.333252,3898.461426,4316.922852,4022.564209,4219.487305,4144.615234,4097.948730,3972.307617,239.000000,4.000000,,,,0.000000,4.000000,4.000000,0.000000,4.000000,4.000000,4.000000,4.000000,4.000000,4.000000,1.000000,4.000000,4.000000,4.000000,2.000000,25.000000
1602278599.552594,96.000000,0.000000,3923.589844,4614.358887,4165.128418,4247.692383,3926.153809,4594.358887,3970.769287,3896.923096,4312.820313,4021.538574,4209.743652,4140.000000,4087.692383,3969.230713,426.000000,4.000000,,,,0.000000,4.000000,4.000000,0.000000,4.000000,4.000000,4.000000,4.000000,4.000000,4.000000,1.000000,4.000000,4.000000,4.000000,2.000000,25.000000
1602278599.560416,97.000000,0.000000,3915.384521,4603.077148,4162.051270,4249.743652,3925.641113,4594.871582,3967.179443,3890.769287,4299.487305,4019.487061,4199.487305,4129.743652,4068.205078,3968.205078,357.000000,4.000000,,,,0.000000,4.000000,4.000000,0.000000,4.000000,4.000000,4.000000,4.000000,4.000000,4.000000,1.000000,4.000000,4.000000,4.000000,2.000000,25.000000
1602278599.568139,98.000000,0.000000,3910.256348,4608.717773,4162.051270,4247.692383,3918.974365,4598.974121,3967.692383,3882.051270,4288.717773,4017.435791,4196.410156,4126.153809,4058.974365,3969.230713,445.000000,4.000000,,,,0.000000,4.000000,4.000000,0.000000,4.000000,4.000000,4.000000,4.000000,4.000000,4.000000,1.000000,4.000000,4.000000,4.000000,2.000000,25.000000
1602278599.575962,99.000000,0.000000,3910.769287,4621.025879,4164.615234,4247.179688,3930.256348,4603.077148,3968.718018,3877.435791,4292.820313,4017.948730,4198.974121,4130.769043,4066.153809,3968.205078,239.000000,4.000000,,,,0.000000,4.000000,4.000000,0.000000,4.000000,4.000000,4.000000,4.000000,4.000000,4.000000,1.000000,4.000000,4.000000,4.000000,2.000000,25.000000
1602278599.583684,100.000000,0.000000,3908.718018,4616.410156,4164.615234,4247.692383,3945.128174,4601.025879,3963.589844,3875.384521,4292.307617,4018.461426,4199.487305,4129.230957,4070.256348,3964.615479,426.000000,4.000000,,,,0.000000,4.000000,4.000000,0.000000,4.000000,4.000000,4.000000,4.000000,4.000000,4.000000,1.000000,4.000000,4.000000,4.000000,2.000000,25.000000
1602278599.591507,101.000000,0.000000,3903.589844,4613.846191,4162.051270,4247.179688,3934.358887,4603.589844,3962.564209,3870.256348,4281.025879,4015.897461,4200.512695,4124.615234,4075.384521,3963.589844,357.000000,4.000000,,,,0.000000,4.000000,4.000000,0.000000,4.000000,4.000000,4.000000,4.000000,4.000000,4.000000,1.000000,4.000000,4.000000,4.000000,2.000000,25.000000
1602278599.599229,102.000000,0.000000,3897.435791,4617.436035,4161.025879,4245.128418,3928.718018,4612.307617,3967.692383,3870.769287,4285.128418,4012.307617,4201.025879,4128.717773,4076.410156,3963.076904,445.000000,4.000000,,,,0.000000,4.000000,4.000000,0.000000,4.000000,4.000000,4.000000,4.000000,4.000000,4.000000,1.000000,4.000000,4.000000,4.000000,2.000000,25.000000
1602278599.607052,103.000000,0.000000,3893.333252,4593.846191,4163.077148,4238.461426,3945.641113,4611.794922,3971.794922,3885.128174,4307.179688,4014.358887,4196.410156,4129.743652,4052.820557,3963.589844,239.000000,4.000000,,,,0.000000,4.000000,4.000000,0.000000,4.000000,4.000000,4.000000,4.000000,4.000000,4.000000,1.000000,4.000000,4.000000,4.000000,2.000000,25.000000
1602278599.614774,104.000000,0.000000,3897.435791,4576.922852,4165.128418,4231.282227,3940.512939,4610.256348,3977.435791,3896.410156,4321.538574,4018.974365,4195.897461,4129.743652,4043.589844,3967.179443,426.000000,4.000000,,,,0.000000,4.000000,4.000000,0.000000,4.000000,4.000000,4.000000,4.000000,4.000000,4.000000,1.000000,4.000000,4.000000,4.000000,2.000000,25.000000
1602278599.622697,105.000000,0.000000,3907.179443,4601.538574,4162.563965,4236.410156,3913.333252,4615.897461,3988.718018,3900.512939,4325.128418,4022.051270,4206.153809,4138.974121,4077.435791,3972.307617,357.000000,4.000000,,,,0.000000,4.000000,4.000000,0.000000,4.000000,4.000000,4.000000,4.000000,4.000000,4.000000,1.000000,4.000000,4.000000,4.000000,2.000000,25.000000
1602278599.630521,106.000000,0.000000,3921.025635,4614.871582,4160.000000,4242.051270,3907.179443,4616.922852,3993.846191,3908.718018,4332.307617,4020.000000,4222.563965,4151.282227,4108.717773,3976.410156,445.000000,4.000000,,,,0.000000,4.000000,4.000000,0.000000,4.000000,4.000000,4.000000,4.000000,4.000000,4.000000,1.000000,4.000000,4.000000,4.000000,2.000000,25.000000
1602278599.638444,107.000000,0.000000,3932.307617,4598.974121,4166.666504,4238.974121,3922.564209,4613.846191,3989.230713,3916.923096,4338.461426,4021.025635,4236.410156,4162.051270,4107.692383,3983.076904,239.000000,4.000000,,,,0.000000,4.000000,4.000000,0.000000,4.000000,4.000000,4.000000,4.000000,4.000000,4.000000,1.000000,4.000000,4.000000,4.000000,2.000000,25.000000
1602278599.646268,108.000000,0.000000,3928.205078,4591.794922,4169.743652,4236.922852,3923.589844,4615.384766,3986.666748,3912.820557,4329.743652,4027.179443,4235.897461,4165.128418,4101.538574,3984.615479,426.000000,4.000000,,,,0.000000,4.000000,4.000000,0.000000,4.000000,4.000000,4.000000,4.000000,4.000000,4.000000,1.000000,4.000000,4.000000,4.000000,2.000000,25.000000
1602278599.654191,109.000000,0.000000,3915.384521,4589.230957,4164.102539,4233.333496,3910.769287,4607.692383,3977.948730,3896.923096,4309.230957,4027.179443,4223.589844,4154.871582,4095.384521,3975.384521,357.000000,4.000000,,,,0.000000,4.000000,4.000000,0.000000,4.000000,4.000000,4.000000,4.000000,4.000000,4.000000,1.000000,4.000000,4.000000,4.000000,2.000000,25.000000
1602278599.662015,110.000000,0.000000,3913.846191,4589.230957,4160.512695,4233.333496,3924.102539,4598.974121,3966.666748,3887.692383,4300.000000,4018.461426,4212.820313,4144.102539,4082.564209,3967.692383,445.000000,4.000000,,,,0.000000,4.000000,4.000000,0.000000,4.000000,4.000000,4.000000,4.000000,4.000000,4.000000,1.000000,4.000000,4.000000,4.000000,2.000000,25.000000
1602278599.669938,111.000000,0.000000,3917.435791,4601.025879,4164.615234,4243.589844,3937.435791,4602.051270,3962.051270,3877.948730,4295.384766,4015.897461,4202.051270,4137.436035,4068.205078,3965.128174,239.000000,4.000000,,,,0.000000,4.000000,4.000000,0.000000,4.000000,4.000000,4.000000,4.000000,4.000000,4.000000,1.000000,4.000000,4.000000,4.000000,2.000000,25.000000
1602278599.677761,112.000000,0.000000,3909.230713,4601.025879,4162.563965,4250.256348,3920.512939,4602.051270,3956.410156,3866.666748,4277.948730,4018.974365,4186.153809,4126.153809,4047.692383,3960.512939,426.000000,4.000000,,,,0.000000,4.000000,4.000000,0.000000,4.000000,4.000000,4.000000,4.000000,4.000000,4.000000,1.000000,4.000000,4.000000,4.000000,2.000000,25.000000
1602278599.685684,113.000000,0.000000,3901.538574,4598.974121,4162.051270,4248.205078,3912.820557,4597.436035,3954.358887,3867.692383,4273.846191,4017.435791,4182.051270,4120.512695,4036.410156,3958.461426,357.000000,4.000000,,,,0.000000,4.000000,4.000000,0.000000,4.000000,4.000000,4.000000,4.000000,4.000000,4.000000,1.000000,4.000000,4.000000,4.000000,2.000000,25.000000
1602278599.693507,114.000000,0.000000,3905.641113,4616.410156,4165.128418,4250.256348,3932.307617,4599.487305,3962.051270,3876.410156,4294.358887,4016.410156,4192.820313,4125.128418,4051.794922,3958.461426,445.000000,4.000000,,,,0.000000,4.000000,4.000000,0.000000,4.000000,4.000000,4.000000,4.000000,4.000000,4.000000,1.000000,4.000000,4.000000,4.000000,2.000000,25.000000
1602278599.701430,115.000000,0.000000,3904.102539,4621.538574,4165.128418,4253.333496,3937.435791,4602.051270,3962.564209,3876.923096,4306.153809,4018.461426,4197.948730,4126.666504,4073.846191,3957.435791,239.000000,4.000000,,,,0.000000,4.000000,4.000000,0.000000,4.000000,4.000000,4.000000,4.000000,4.000000,4.000000,1.000000,4.000000,4.000000,4.000000,2.000000,25.000000
1602278599.709253,116.000000,0.000000,3891.281982,4612.307617,4162.563965,4247.692383,3930.769287,4605.641113,3957.435791,3873.846191,4296.922852,4018.974365,4195.384766,4122.563965,4076.410156,3955.897461,426.000000,4.000000,,,,0.000000,4.000000,4.000000,0.000000,4.000000,4.000000,4.000000,4.000000,4.000000,4.000000,1.000000,4.000000,4.000000,4.000000,2.000000,25.000000
1602278599.717176,117.000000,0.000000,3884.615479,4615.384766,4164.102539,4246.153809,3940.512939,4613.846191,3965.641113,3880.512939,4294.871582,4017.948730,4194.871582,4122.563965,4067.179443,3958.461426,357.000000,4.000000,,,,0.000000,4.000000,4.000000,0.000000,4.000000,4.000000,4.000000,4.000000,4.000000,4.000000,1.000000,4.000000,4.000000,4.000000,2.000000,25.000000
1602278599.724999,118.000000,0.000000,3890.256348,4618.461426,4164.102539,4249.743652,3946.153809,4618.461426,3977.948730,3894.358887,4312.307617,4023.076904,4202.051270,4129.230957,4070.769287,3964.615479,445.000000,4.000000,,,,0.000000,4.000000,4.000000,0.000000,4.000000,4.000000,4.000000,4.000000,4.000000,4.000000,1.000000,4.000000,4.000000,4.000000,2.000000,25.000000
1602278599.732722,119.000000,0.000000,3900.512939,4620.000000,4164.102539,4252.307617,3945.641113,4622.051270,3980.512939,3904.102539,4330.769043,4031.281982,4212.820313,4140.000000,4087.692383,3969.230713,239.000000,4.000000,,,,0.000000,4.000000,4.000000,0.000000,4.000000,4.000000,4.000000,4.000000,4.000000,4.000000,1.000000,4.000000,4.000000,4.000000,2.000000,25.000000
1602278599.740545,120.000000,0.000000,3906.153809,4620.000000,4166.666504,4249.743652,3937.948730,4621.538574,3977.435791,3904.615479,4333.333496,4029.230713,4212.820313,4144.102539,4091.794922,3967.179443,426.000000,4.000000,,,,0.000000,4.000000,4.000000,0.000000,4.000000,4.000000,4.000000,4.000000,4.000000,4.000000,1.000000,4.000000,4.000000,4.000000,2.000000,25.000000
1602278599.748268,121.000000,0.000000,3901.538574,4603.077148,4163.077148,4244.102539,3926.153809,4618.974121,3983.076904,3910.256348,4332.307617,4025.128174,4206.666504,4142.563965,4077.948730,3967.179443,357.000000,4.000000,,,,0.000000,4.000000,4.000000,0.000000,4.000000,4.000000,4.000000,4.000000,4.000000,4.000000,1.000000,4.000000,4.000000,4.000000,2.000000,25.000000
1602278599.756090,122.000000,0.000000,3896.923096,4595.897461,4162.563965,4249.230957,3923.589844,4625.128418,3995.384521,3922.051270,4342.051270,4031.281982,4221.025879,4148.717773,4080.512939,3976.923096,445.000000,4.000000,,,,0.000000,4.000000,4.000000,0.000000,4.000000,4.000000,4.000000,4.000000,4.000000,4.000000,1.000000,4.000000,4.000000,4.000000,2.000000,25.000000
1602278599.763813,123.000000,0.000000,3895.384521,4611.282227,4165.128418,4247.692383,3929.230713,4621.025879,3994.871826,3913.846191,4335.897461,4033.846191,4237.436035,4153.846191,4098.974121,3975.897461,239.000000,4.000000,,,,0.000000,4.000000,4.000000,0.000000,4.000000,4.000000,4.000000,4.000000,4.000000,4.000000,1.000000,4.000000,4.000000,4.000000,2.000000,25.000000
1602278599.771636,124.000000,0.000000,3892.307617,4603.077148,4165.128418,4235.384766,3939.487061,4601.025879,3978.461426,3897.435791,4309.743652,4025.128174,4225.641113,4144.102539,4097.436035,3965.128174,426.000000,4.000000,,,,0.000000,4.000000,4.000000,0.000000,4.000000,4.000000,4.000000,4.000000,4.000000,4.000000,1.000000,4.000000,4.000000,4.000000,2.000000,25.000000
1602278599.779358,125.000000,0.000000,3895.897461,4584.102539,4164.102539,4238.461426,3942.564209,4601.538574,3967.692383,3891.281982,4296.410156,4019.487061,4209.230957,4132.820313,4080.512939,3963.076904,357.000000,4.000000,,,,0.000000,4.000000,4.000000,0.000000,4.000000,4.000000,4.000000,4.000000,4.000000,4.000000,1.000000,4.000000,4.000000,4.000000,2.000000,25.000000
1602278599.787180,126.000000,0.000000,3905.128174,4595.897461,4166.666504,4243.589844,3929.743652,4611.794922,3962.051270,3882.051270,4293.333496,4017.948730,4203.589844,4130.256348,4061.025635,3965.128174,445.000000,4.000000,,,,0.000000,4.000000,4.000000,0.000000,4.000000,4.000000,4.000000,4.000000,4.000000,4.000000,1.000000,4.000000,4.000000,4.000000,2.000000,25.000000
1602278599.794903,127.000000,0.000000,3905.641113,4608.205078,4165.641113,4238.974121,3923.076904,4604.615234,3955.897461,3866.666748,4281.538574,4014.871826,4197.948730,4127.692383,4049.230713,3964.615479,239.000000,4.000000,,,,0.000000,4.000000,4.000000,0.000000,4.000000,4.000000,4.000000,4.000000,4.000000,4.000000,1.000000,4.000000,4.000000,4.000000,2.000000,25.000000
1602278599.802725,128.000000,0.000000,3906.153809,4607.179688,4166.153809,4245.128418,3938.974365,4597.948730,3956.410156,3861.025635,4272.307617,4013.846191,4195.897461,4126.666504,4051.281982,3965.128174,426.000000,4.000000,,,,0.000000,4.000000,4.000000,0.000000,4.000000,4.000000,4.000000,4.000000,4.000000,4.000000,1.000000,4.000000,4.000000,4.000000,2.000000,25.000000
1602278599.810447,0.000000,0.000000,3912.307617,4614.358887,4164.615234,4254.871582,3945.641113,4600.512695,3957.435791,3862.051270,4274.871582,4013.333252,4198.974121,4128.717773,4058.974365,3964.615479,0.000000,4.000000,,,,0.000000,4.000000,4.000000,0.000000,4.000000,4.000000,4.000000,4.000000,4.000000,4.000000,1.000000,4.000000,4.000000,4.000000,2.000000,25.000000
1602278599.818269,1.000000,0.000000,3919.487061,4622.051270,4162.563965,4245.641113,3934.871826,4600.000000,3952.820557,3862.564209,4279.487305,4011.794922,4206.153809,4134.358887,4067.692383,3969.230713,427.000000,4.000000,,,,0.000000,4.000000,4.000000,0.000000,4.000000,4.000000,4.000000,4.000000,4.000000,4.000000,1.000000,4.000000,4.000000,4.000000,2.000000,25.000000
1602278599.825991,2.000000,0.000000,3923.589844,4625.128418,4161.025879,4244.102539,3936.410156,4599.487305,3949.230713,3867.692383,4283.589844,4014.358887,4217.436035,4144.102539,4077.948730,3975.384521,388.000000,4.000000,,,,0.000000,4.000000,4.000000,0.000000,4.000000,4.000000,4.000000,4.000000,4.000000,4.000000,1.000000,4.000000,4.000000,4.000000,2.000000,25.000000
1602278599.833915,3.000000,0.000000,3923.589844,4627.692383,4163.077148,4251.794922,3942.051270,4601.538574,3952.820557,3871.281982,4288.205078,4020.000000,4221.025879,4148.205078,4076.410156,3974.871826,445.000000,4.000000,,,,0.000000,4.000000,4.000000,0.000000,4.000000,4.000000,4.000000,4.000000,4.000000,4.000000,1.000000,4.000000,4.000000,4.000000,2.000000,25.000000
1602278599.841738,4.000000,0.000000,3916.923096,4622.563965,4164.615234,4241.025879,3930.256348,4602.051270,3961.025635,3867.692383,4285.641113,4020.512939,4221.025879,4142.051270,4069.743652,3970.256348,479.000000,4.000000,,,,0.000000,4.000000,4.000000,0.000000,4.000000,4.000000,4.000000,4.000000,4.000000,4.000000,1.000000,4.000000,4.000000,4.000000,2.000000,25.000000
1602278599.849661,5.000000,0.000000,3911.281982,4614.871582,4165.128418,4230.256348,3920.000000,4604.102539,3965.641113,3870.769287,4287.179688,4018.974365,4225.641113,4139.487305,4077.948730,3972.820557,417.000000,4.000000,,,,0.000000,4.000000,4.000000,0.000000,4.000000,4.000000,4.000000,4.000000,4.000000,4.000000,1.000000,4.000000,4.000000,4.000000,2.000000,25.000000
1602278599.857484,6.000000,0.000000,3910.769287,4614.871582,4166.153809,4232.307617,3931.794922,4608.205078,3965.641113,3884.615479,4301.025879,4019.487061,4226.666504,4145.641113,4088.205078,3975.897461,471.000000,4.000000,,,,0.000000,4.000000,4.000000,0.000000,4.000000,4.000000,4.000000,4.000000,4.000000,4.000000,1.000000,4.000000,4.000000,4.000000,2.000000,25.000000
1602278599.865408,7.000000,0.000000,3908.205078,4614.871582,4166.666504,4230.256348,3948.205078,4611.794922,3972.820557,3893.333252,4309.743652,4021.538574,4229.230957,4149.230957,4089.230713,3974.871826,395.000000,4.000000,,,,0.000000,4.000000,4.000000,0.000000,4.000000,4.000000,4.000000,4.000000,4.000000,4.000000,1.000000,4.000000,4.000000,4.000000,2.000000,25.000000
1602278599.873231,8.000000,0.000000,3903.076904,4601.025879,4164.102539,4217.948730,3945.641113,4614.358887,3981.025635,3892.307617,4303.589844,4022.564209,4237.436035,4148.205078,4083.589844,3974.358887,414.000000,4.000000,,,,0.000000,4.000000,4.000000,0.000000,4.000000,4.000000,4.000000,4.000000,4.000000,4.000000,1.000000,4.000000,4.000000,4.000000,2.000000,25.000000
1602278599.881154,9.000000,0.000000,3898.974365,4582.563965,4162.563965,4209.743652,3936.923096,4609.743652,3971.794922,3887.692383,4298.461426,4021.025635,4226.666504,4139.487305,4069.230713,3970.769287,49.000000,4.000000,,,,0.000000,4.000000,4.000000,0.000000,4.000000,4.000000,4.000000,4.000000,4.000000,4.000000,1.000000,4.000000,4.000000,4.000000,2.000000,25.000000
1602278599.888977,10.000000,0.000000,3899.487061,4580.000000,4167.179688,4213.846191,3942.564209,4608.205078,3963.589844,3887.692383,4302.051270,4019.487061,4212.820313,4134.871582,4066.153809,3969.230713,445.000000,4.000000,,,,0.000000,4.000000,4.000000,0.000000,4.000000,4.000000,4.000000,4.000000,4.000000,4.000000,1.000000,4.000000,4.000000,4.000000,2.000000,25.000000
1602278599.896900,11.000000,0.000000,3901.025635,4589.743652,4164.102539,4217.436035,3949.743652,4611.794922,3968.205078,3888.718018,4303.589844,4020.512939,4221.025879,4141.025879,4081.538574,3970.769287,240.000000,4.000000,,,,0.000000,4.000000,4.000000,0.000000,4.000000,4.000000,4.000000,4.000000,4.000000,4.000000,1.000000,4.000000,4.000000,4.000000,2.000000,25.000000
1602278599.904723,12.000000,0.000000,3902.564209,4586.666504,4161.538574,4218.461426,3945.641113,4610.256348,3967.692383,3884.102539,4301.538574,4021.538574,4228.717773,4146.666504,4084.102539,3971.794922,426.000000,4.000000,,,,0.000000,4.000000,4.000000,0.000000,4.000000,4.000000,4.000000,4.000000,4.000000,4.000000,1.000000,4.000000,4.000000,4.000000,2.000000,25.000000
1602278599.912445,13.000000,0.000000,3907.179443,4585.128418,4165.641113,4222.051270,3946.153809,4607.179688,3965.641113,3877.948730,4295.897461,4019.487061,4223.077148,4142.563965,4074.871826,3970.256348,357.000000,4.000000,,,,0.000000,4.000000,4.000000,0.000000,4.000000,4.000000,4.000000,4.000000,4.000000,4.000000,1.000000,4.000000,4.000000,4.000000,2.000000,25.000000
1602278599.920268,14.000000,0.000000,3909.230713,4593.846191,4164.615234,4223.077148,3949.743652,4605.641113,3966.666748,3877.435791,4285.128418,4017.948730,4220.000000,4137.436035,4076.410156,3970.769287,445.000000,4.000000,,,,0.000000,4.000000,4.000000,0.000000,4.000000,4.000000,4.000000,4.000000,4.000000,4.000000,1.000000,4.000000,4.000000,4.000000,2.000000,25.000000
1602278599.927991,15.000000,0.000000,3908.205078,4596.410156,4160.512695,4223.077148,3951.794922,4601.538574,3957.948730,3878.974365,4283.589844,4020.512939,4226.153809,4142.563965,4082.564209,3971.794922,240.000000,4.000000,,,,0.000000,4.000000,4.000000,0.000000,4.000000,4.000000,4.000000,4.000000,4.000000,4.000000,1.000000,4.000000,4.000000,4.000000,2.000000,25.000000
1602278599.935813,16.000000,0.000000,3906.666748,4591.794922,4163.077148,4225.128418,3953.846191,4599.487305,3952.307617,3872.820557,4287.179688,4020.000000,4222.051270,4143.077148,4072.307617,3972.307617,0.000000,4.000000,,,,0.000000,4.000000,4.000000,0.000000,4.000000,4.000000,4.000000,4.000000,4.000000,4.000000,1.000000,4.000000,4.000000,4.000000,2.000000,25.000000
1602278599.943536,17.000000,0.000000,3901.538574,4589.230957,4161.538574,4228.205078,3951.794922,4605.128418,3962.564209,3867.692383,4283.077148,4014.358887,4203.077148,4132.307617,4052.820557,3968.718018,0.000000,4.000000,,,,0.000000,4.000000,4.000000,0.000000,4.000000,4.000000,4.000000,4.000000,4.000000,4.000000,1.000000,4.000000,4.000000,4.000000,2.000000,25.000000
1602278599.951358,18.000000,0.000000,3898.461426,4594.871582,4164.102539,4230.256348,3953.333252,4609.230957,3969.230713,3873.333252,4282.051270,4010.256348,4195.384766,4127.692383,4048.718018,3966.153809,0.000000,4.000000,,,,0.000000,4.000000,4.000000,0.000000,4.000000,4.000000,4.000000,4.000000,4.000000,4.000000,1.000000,4.000000,4.000000,4.000000,2.000000,25.000000
1602278599.959081,19.000000,0.000000,3901.025635,4602.051270,4169.743652,4231.282227,3962.564209,4607.179688,3963.589844,3878.461426,4288.717773,4013.846191,4200.000000,4130.256348,4057.435791,3967.179443,0.000000,4.000000,,,,0.000000,4.000000,4.000000,0.000000,4.000000,4.000000,4.000000,4.000000,4.000000,4.000000,1.000000,4.000000,4.000000,4.000000,2.000000,25.000000
1602278599.966903,20.000000,0.000000,3904.102539,4604.102539,4168.205078,4232.307617,3965.641113,4606.666504,3961.025635,3876.923096,4288.717773,4017.435791,4194.871582,4130.769043,4054.871826,3968.205078,0.000000,4.000000,,,,0.000000,4.000000,4.000000,0.000000,4.000000,4.000000,4.000000,4.000000,4.000000,4.000000,1.000000,4.000000,4.000000,4.000000,2.000000,25.000000
1602278599.974625,21.000000,0.000000,3905.641113,4607.179688,4166.153809,4233.846191,3958.461426,4606.153809,3967.179443,3876.410156,4288.205078,4016.410156,4188.717773,4130.256348,4044.615479,3967.692383,0.000000,4.000000,,,,0.000000,4.000000,4.000000,0.000000,4.000000,4.000000,4.000000,4.000000,4.000000,4.000000,1.000000,4.000000,4.000000,4.000000,2.000000,25.000000
1602278599.982448,22.000000,0.000000,3907.179443,4606.153809,4167.179688,4226.153809,3951.794922,4602.563965,3968.718018,3879.487061,4292.820313,4016.923096,4196.922852,4134.871582,4044.615479,3973.333252,0.000000,4.000000,,,,0.000000,4.000000,4.000000,0.000000,4.000000,4.000000,4.000000,4.000000,4.000000,4.000000,1.000000,4.000000,4.000000,4.000000,2.000000,25.000000
1602278599.990170,23.000000,0.000000,3910.256348,4598.974121,4166.666504,4221.538574,3950.769287,4603.077148,3966.153809,3883.076904,4295.384766,4020.512939,4207.692383,4142.051270,4049.230713,3980.000000,0.000000,4.000000,,,,0.000000,4.000000,4.000000,0.000000,4.000000,4.000000,4.000000,4.000000,4.000000,4.000000,1.000000,4.000000,4.000000,4.000000,2.000000,25.000000
1602278599.997992,24.000000,0.000000,3913.846191,4600.512695,4164.615234,4229.743652,3951.281982,4609.230957,3966.666748,3883.589844,4297.436035,4019.487061,4210.769043,4147.179688,4052.820557,3975.897461,0.000000,4.000000,,,,0.000000,4.000000,4.000000,0.000000,4.000000,4.000000,4.000000,4.000000,4.000000,4.000000,1.000000,4.000000,4.000000,4.000000,2.000000,25.000000
1602278600.005714,25.000000,0.000000,3911.794922,4607.692383,4163.589844,4227.692383,3950.769287,4609.743652,3967.692383,3883.589844,4300.512695,4015.897461,4205.128418,4141.025879,4060.000000,3969.743652,0.000000,4.000000,,,,0.000000,4.000000,4.000000,0.000000,4.000000,4.000000,4.000000,4.000000,4.000000,4.000000,1.000000,4.000000,4.000000,4.000000,2.000000,25.000000
1602278600.013637,26.000000,0.000000,3906.153809,4599.487305,4163.589844,4218.974121,3955.384521,4608.205078,3969.230713,3890.256348,4302.051270,4016.923096,4198.974121,4131.794922,4062.051270,3969.230713,0.000000,4.000000,,,,0.000000,4.000000,4.000000,0.000000,4.000000,4.000000,4.000000,4.000000,4.000000,4.000000,1.000000,4.000000,4.000000,4.000000,2.000000,25.000000
1602278600.021461,27.000000,0.000000,3910.256348,4594.871582,4166.666504,4227.692383,3963.076904,4606.153809,3964.615479,3890.769287,4301.538574,4016.923096,4202.563965,4131.794922,4060.512939,3972.307617,0.000000,4.000000,,,,0.000000,4.000000,4.000000,0.000000,4.000000,4.000000,4.000000,4.000000,4.000000,4.000000,1.000000,4.000000,4.000000,4.000000,2.000000,25.000000
1602278600.029384,28.000000,0.000000,3919.487061,4615.384766,4166.666504,4243.589844,3962.564209,4603.589844,3957.948730,3881.538574,4302.563965,4015.897461,4210.256348,4133.846191,4067.179443,3975.384521,0.000000,4.000000,,,,0.000000,4.000000,4.000000,0.000000,4.000000,4.000000,4.000000,4.000000,4.000000,4.000000,1.000000,4.000000,4.000000,4.000000,2.000000,25.000000
1602278600.037207,29.000000,0.000000,3922.051270,4628.205078,4165.128418,4248.717773,3956.923096,4602.563965,3957.948730,3877.435791,4298.974121,4017.435791,4213.333496,4136.410156,4078.461426,3978.461426,0.000000,4.000000,,,,0.000000,4.000000,4.000000,0.000000,4.000000,4.000000,4.000000,4.000000,4.000000,4.000000,1.000000,4.000000,4.000000,4.000000,2.000000,25.000000
1602278600.045130,30.000000,0.000000,3920.512939,4622.563965,4165.128418,4249.743652,3956.410156,4602.051270,3956.410156,3878.461426,4291.282227,4015.897461,4214.871582,4140.512695,4084.615479,3976.923096,0.000000,4.000000,,,,0.000000,4.000000,4.000000,0.000000,4.000000,4.000000,4.000000,4.000000,4.000000,4.000000,1.000000,4.000000,4.000000,4.000000,2.000000,25.000000
1602278600.052953,31.000000,0.000000,3918.974365,4617.948730,4166.153809,4246.666504,3958.461426,4600.000000,3948.718018,3876.923096,4287.692383,4013.333252,4217.948730,4143.077148,4084.615479,3976.410156,0.000000,4.000000,,,,0.000000,4.000000,4.000000,0.000000,4.000000,4.000000,4.000000,4.000000,4.000000,4.000000,1.000000,4.000000,4.000000,4.000000,2.000000,25.000000
1602278600.060876,32.000000,0.000000,3917.948730,4616.922852,4164.102539,4245.128418,3961.538574,4600.512695,3953.333252,3878.461426,4290.256348,4013.846191,4217.436035,4144.615234,4077.948730,3977.948730,0.000000,4.000000,,,,0.000000,4.000000,4.000000,0.000000,4.000000,4.000000,4.000000,4.000000,4.000000,4.000000,1.000000,4.000000,4.000000,4.000000,2.000000,25.000000
1602278600.068700,33.000000,0.000000,3917.435791,4617.436035,4166.666504,4246.153809,3955.384521,4602.563965,3962.564209,3878.974365,4291.282227,4012.820557,4208.717773,4143.077148,4069.230713,3975.384521,0.000000,4.000000,,,,0.000000,4.000000,4.000000,0.000000,4.000000,4.000000,4.000000,4.000000,4.000000,4.000000,1.000000,4.000000,4.000000,4.000000,2.000000,25.000000
1602278600.076623,34.000000,0.000000,3916.923096,4616.922852,4167.692383,4242.051270,3947.692383,4595.897461,3957.948730,3875.384521,4290.256348,4010.769287,4205.128418,4136.410156,4069.230713,3969.230713,0.000000,4.000000,,,,0.000000,4.000000,4.000000,0.000000,4.000000,4.000000,4.000000,4.000000,4.000000,4.000000,1.000000,4.000000,4.000000,4.000000,2.000000,25.000000
1602278600.084446,35.000000,0.000000,3917.948730,4612.820313,4164.102539,4242.051270,3949.230713,4597.436035,3960.512939,3877.435791,4291.282227,4013.846191,4212.307617,4134.358887,4072.307617,3970.256348,0.000000,4.000000,,,,0.000000,4.000000,4.000000,0.000000,4.000000,4.000000,4.000000,4.000000,4.000000,4.000000,1.000000,4.000000,4.000000,4.000000,2.000000,25.000000
1602278600.092368,36.000000,0.000000,3925.641113,4616.410156,4163.077148,4247.692383,3958.461426,4606.153809,3964.102539,3879.487061,4288.205078,4014.871826,4212.307617,4141.025879,4070.769287,3975.384521,0.000000,4.000000,,,,0.000000,4.000000,4.000000,0.000000,4.000000,4.000000,4.000000,4.000000,4.000000,4.000000,1.000000,4.000000,4.000000,4.000000,2.000000,25.000000
1602278600.100191,37.000000,0.000000,3931.794922,4629.743652,4165.128418,4251.282227,3966.666748,4600.512695,3952.307617,3876.410156,4286.666504,4012.307617,4211.794922,4144.615234,4071.281982,3977.948730,0.000000,4.000000,,,,0.000000,4.000000,4.000000,0.000000,4.000000,4.000000,4.000000,4.000000,4.000000,4.000000,1.000000,4.000000,4.000000,4.000000,2.000000,25.000000
1602278600.107914,38.000000,0.000000,3925.641113,4631.794922,4162.563965,4249.230957,3956.410156,4589.230957,3947.179443,3872.307617,4291.794922,4010.256348,4216.410156,4141.025879,4073.333252,3977.435791,0.000000,4.000000,,,,0.000000,4.000000,4.000000,0.000000,4.000000,4.000000,4.000000,4.000000,4.000000,4.000000,1.000000,4.000000,4.000000,4.000000,2.000000,25.000000
1602278600.115737,39.000000,0.000000,3918.461426,4629.743652,4160.000000,4247.692383,3946.153809,4594.358887,3958.461426,3875.384521,4298.461426,4014.358887,4214.871582,4138.974121,4075.384521,3978.974365,0.000000,4.000000,,,,0.000000,4.000000,4.000000,0.000000,4.000000,4.000000,4.000000,4.000000,4.000000,4.000000,1.000000,4.000000,4.000000,4.000000,2.000000,25.000000
1602278600.123459,40.000000,0.000000,3918.461426,4636.410156,4164.102539,4249.230957,3956.923096,4603.077148,3965.641113,3889.230713,4303.077148,4020.000000,4221.025879,4143.077148,4084.102539,3979.487061,0.000000,4.000000,,,,0.000000,4.000000,4.000000,0.000000,4.000000,4.000000,4.000000,4.000000,4.000000,4.000000,1.000000,4.000000,4.000000,4.000000,2.000000,25.000000
1602278600.131282,41.000000,0.000000,3918.974365,4637.436035,4166.666504,4250.256348,3967.692383,4602.051270,3965.641113,3897.435791,4308.717773,4020.512939,4229.743652,4145.641113,4090.769287,3976.410156,0.000000,4.000000,,,,0.000000,4.000000,4.000000,0.000000,4.000000,4.000000,4.000000,4.000000,4.000000,4.000000,1.000000,4.000000,4.000000,4.000000,2.000000,25.000000
1602278600.139004,42.000000,0.000000,3913.846191,4634.358887,4167.692383,4249.230957,3962.564209,4600.512695,3963.589844,3889.743652,4312.307617,4018.461426,4223.077148,4143.077148,4089.743652,3977.435791,0.000000,4.000000,,,,0.000000,4.000000,4.000000,0.000000,4.000000,4.000000,4.000000,4.000000,4.000000,4.000000,1.000000,4.000000,4.000000,4.000000,2.000000,25.000000
1602278600.146827,43.000000,0.000000,3905.641113,4629.743652,4166.153809,4248.717773,3953.846191,4600.512695,3959.487061,3878.974365,4305.641113,4019.487061,4214.871582,4141.025879,4088.205078,3977.435791,0.000000,4.000000,,,,0.000000,4.000000,4.000000,0.000000,4.000000,4.000000,4.000000,4.000000,4.000000,4.000000,1.000000,4.000000,4.000000,4.000000,2.000000,25.000000
1602278600.154549,44.000000,0.000000,3905.641113,4619.487305,4165.641113,4247.692383,3957.435791,4597.948730,3956.923096,3876.410156,4294.358887,4020.000000,4216.922852,4142.051270,4084.102539,3974.358887,0.000000,4.000000,,,,0.000000,4.000000,4.000000,0.000000,4.000000,4.000000,4.000000,4.000000,4.000000,4.000000,1.000000,4.000000,4.000000,4.000000,2.000000,25.000000
1602278600.162371,45.000000,0.000000,3914.871826,4621.025879,4165.641113,4244.102539,3968.718018,4598.461426,3958.461426,3878.974365,4295.384766,4018.461426,4221.025879,4143.077148,4075.897461,3974.871826,0.000000,4.000000,,,,0.000000,4.000000,4.000000,0.000000,4.000000,4.000000,4.000000,4.000000,4.000000,4.000000,1.000000,4.000000,4.000000,4.000000,2.000000,25.000000
1602278600.170094,46.000000,0.000000,3920.000000,4632.307617,4166.153809,4244.615234,3964.615479,4601.538574,3960.512939,3882.564209,4302.051270,4018.461426,4221.538574,4142.563965,4078.461426,3979.487061,0.000000,4.000000,,,,0.000000,4.000000,4.000000,0.000000,4.000000,4.000000,4.000000,4.000000,4.000000,4.000000,1.000000,4.000000,4.000000,4.000000,2.000000,25.000000
1602278600.177916,47.000000,0.000000,3918.461426,4636.410156,4165.641113,4247.179688,3947.692383,4603.589844,3961.538574,3881.025635,4300.000000,4019.487061,4218.461426,4142.051270,4094.358887,3978.461426,0.000000,4.000000,,,,0.000000,4.000000,4.000000,0.000000,4.000000,4.000000,4.000000,4.000000,4.000000,4.000000,1.000000,4.000000,4.000000,4.000000,2.000000,25.000000
1602278600.185638,48.000000,0.000000,3917.948730,4636.410156,4166.666504,4247.692383,3952.307617,4603.589844,3963.076904,3877.948730,4296.410156,4020.000000,4217.948730,4141.025879,4102.563965,3975.384521,0.000000,4.000000,,,,0.000000,4.000000,4.000000,0.000000,4.000000,4.000000,4.000000,4.000000,4.000000,4.000000,1.000000,4.000000,4.000000,4.000000,2.000000,25.000000
1602278600.193561,49.000000,0.000000,3916.923096,4633.846191,4163.077148,4246.666504,3962.564209,4602.051270,3960.512939,3882.051270,4298.461426,4019.487061,4223.589844,4141.538574,4094.358887,3977.435791,0.000000,4.000000,,,,0.000000,4.000000,4.000000,0.000000,4.000000,4.000000,4.000000,4.000000,4.000000,4.000000,1.000000,4.000000,4.000000,4.000000,2.000000,25.000000
1602278600.201384,50.000000,0.000000,3917.435791,4629.743652,4161.538574,4247.692383,3955.384521,4605.128418,3957.435791,3886.153809,4300.512695,4016.410156,4223.077148,4143.077148,4087.179443,3981.538574,0.000000,4.000000,,,,0.000000,4.000000,4.000000,0.000000,4.000000,4.000000,4.000000,4.000000,4.000000,4.000000,1.000000,4.000000,4.000000,4.000000,2.000000,25.000000
1602278600.209307,51.000000,0.000000,3922.564209,4637.436035,4165.641113,4255.384766,3960.000000,4616.410156,3970.769287,3890.769287,4306.153809,4017.435791,4219.487305,4146.666504,4090.256348,3983.589844,0.000000,4.000000,,,,0.000000,4.000000,4.000000,0.000000,4.000000,4.000000,4.000000,4.000000,4.000000,4.000000,1.000000,4.000000,4.000000,4.000000,2.000000,25.000000
1602278600.217131,52.000000,0.000000,3924.102539,4644.615234,4168.717773,4260.512695,3972.307617,4621.025879,3983.589844,3894.358887,4312.307617,4020.512939,4215.384766,4147.179688,4086.666748,3982.564209,0.000000,4.000000,,,,0.000000,4.000000,4.000000,0.000000,4.000000,4.000000,4.000000,4.000000,4.000000,4.000000,1.000000,4.000000,4.000000,4.000000,2.000000,25.000000
1602278600.225054,53.000000,0.000000,3921.025635,4632.820313,4164.102539,4255.384766,3967.179443,4613.846191,3974.358887,3892.307617,4310.769043,4021.025635,4210.256348,4141.025879,4078.461426,3978.461426,0.000000,4.000000,,,,0.000000,4.000000,4.000000,0.000000,4.000000,4.000000,4.000000,4.000000,4.000000,4.000000,1.000000,4.000000,4.000000,4.000000,2.000000,25.000000
1602278600.232877,54.000000,0.000000,3917.948730,4622.563965,4161.025879,4244.615234,3957.948730,4604.102539,3961.025635,3887.179443,4304.615234,4016.410156,4210.256348,4134.871582,4076.923096,3975.384521,0.000000,4.000000,,,,0.000000,4.000000,4.000000,0.000000,4.000000,4.000000,4.000000,4.000000,4.000000,4.000000,1.000000,4.000000,4.000000,4.000000,2.000000,25.000000
1602278600.240800,55.000000,0.000000,3918.974365,4618.461426,4164.615234,4241.025879,3958.974365,4605.641113,3962.051270,3884.615479,4298.974121,4014.358887,4207.179688,4132.820313,4073.846191,3977.948730,0.000000,4.000000,,,,0.000000,4.000000,4.000000,0.000000,4.000000,4.000000,4.000000,4.000000,4.000000,4.000000,1.000000,4.000000,4.000000,4.000000,2.000000,25.000000
1602278600.248623,56.000000,0.000000,3922.051270,4611.282227,4164.615234,4243.589844,3955.897461,4606.153809,3962.564209,3881.025635,4295.384766,4016.410156,4198.461426,4135.384766,4067.179443,3978.461426,0.000000,4.000000,,,,0.000000,4.000000,4.000000,0.000000,4.000000,4.000000,4.000000,4.000000,4.000000,4.000000,1.000000,4.000000,4.000000,4.000000,2.000000,25.000000
1602278600.256546,57.000000,0.000000,3922.051270,4615.384766,4163.077148,4246.153809,3948.205078,4600.512695,3958.974365,3877.948730,4296.410156,4017.948730,4203.077148,4136.922852,4067.692383,3976.410156,0.000000,4.000000,,,,0.000000,4.000000,4.000000,0.000000,4.000000,4.000000,4.000000,4.000000,4.000000,4.000000,1.000000,4.000000,4.000000,4.000000,2.000000,25.000000
1602278600.264369,58.000000,0.000000,3921.025635,4632.820313,4167.179688,4246.153809,3946.666748,4604.102539,3965.128174,3886.153809,4300.000000,4016.923096,4212.820313,4134.871582,4073.846191,3976.410156,0.000000,4.000000,,,,0.000000,4.000000,4.000000,0.000000,4.000000,4.000000,4.000000,4.000000,4.000000,4.000000,1.000000,4.000000,4.000000,4.000000,2.000000,25.000000
1602278600.272292,59.000000,0.000000,3925.128174,4636.922852,4169.743652,4248.717773,3952.820557,4611.282227,3969.230713,3897.435791,4305.641113,4018.974365,4210.769043,4134.871582,4079.487061,3977.435791,0.000000,4.000000,,,,0.000000,4.000000,4.000000,0.000000,4.000000,4.000000,4.000000,4.000000,4.000000,4.000000,1.000000,4.000000,4.000000,4.000000,2.000000,25.000000
1602278600.280115,60.000000,0.000000,3930.769287,4629.230957,4164.615234,4254.871582,3963.076904,4605.641113,3960.000000,3894.871826,4308.717773,4020.512939,4208.717773,4134.871582,4083.076904,3977.435791,0.000000,4.000000,,,,0.000000,4.000000,4.000000,0.000000,4.000000,4.000000,4.000000,4.000000,4.000000,4.000000,1.000000,4.000000,4.000000,4.000000,2.000000,25.000000
1602278600.287838,61.000000,0.000000,3934.358887,4628.205078,4166.153809,4253.846191,3965.641113,4598.974121,3953.846191,3881.025635,4301.538574,4015.384521,4212.820313,4134.871582,4076.410156,3978.461426,0.000000,4.000000,,,,0.000000,4.000000,4.000000,0.000000,4.000000,4.000000,4.000000,4.000000,4.000000,4.000000,1.000000,4.000000,4.000000,4.000000,2.000000,25.000000
1602278600.295660,62.000000,0.000000,3929.230713,4633.333496,4167.179688,4249.743652,3954.358887,4603.077148,3963.589844,3877.948730,4300.000000,4012.820557,4211.282227,4134.358887,4065.128174,3977.948730,0.000000,4.000000,,,,0.000000,4.000000,4.000000,0.000000,4.000000,4.000000,4.000000,4.000000,4.000000,4.000000,1.000000,4.000000,4.000000,4.000000,2.000000,25.000000
1602278600.303383,63.000000,0.000000,3921.538574,4635.384766,4166.666504,4250.769043,3952.307617,4601.538574,3962.564209,3877.948730,4305.128418,4017.948730,4206.666504,4138.974121,4067.179443,3979.487061,0.000000,4.000000,,,,0.000000,4.000000,4.000000,0.000000,4.000000,4.000000,4.000000,4.000000,4.000000,4.000000,1.000000,4.000000,4.000000,4.000000,2.000000,25.000000
1602278600.311205,64.000000,0.000000,3918.974365,4632.307617,4164.102539,4254.358887,3955.897461,4591.282227,3946.666748,3868.718018,4295.897461,4021.538574,4207.692383,4140.000000,4076.410156,3978.461426,0.000000,4.000000,,,,0.000000,4.000000,4.000000,0.000000,4.000000,4.000000,4.000000,4.000000,4.000000,4.000000,1.000000,4.000000,4.000000,4.000000,2.000000,25.000000
1602278600.318928,65.000000,0.000000,3918.974365,4631.794922,4162.563965,4256.410156,3946.153809,4592.820313,3945.641113,3868.205078,4286.666504,4016.923096,4207.692383,4134.358887,4076.923096,3975.384521,427.000000,4.000000,,,,0.000000,4.000000,4.000000,0.000000,4.000000,4.000000,4.000000,4.000000,4.000000,4.000000,1.000000,4.000000,4.000000,4.000000,2.000000,25.000000
1602278600.326750,66.000000,0.000000,3921.025635,4637.948730,4161.538574,4257.948730,3941.538574,4605.128418,3958.974365,3881.025635,4298.974121,4012.307617,4210.769043,4135.897461,4079.487061,3976.923096,388.000000,4.000000,,,,0.000000,4.000000,4.000000,0.000000,4.000000,4.000000,4.000000,4.000000,4.000000,4.000000,1.000000,4.000000,4.000000,4.000000,2.000000,25.000000
1602278600.334472,67.000000,0.000000,3924.102539,4627.179688,4166.153809,4256.410156,3951.794922,4608.717773,3964.615479,3887.692383,4309.230957,4013.846191,4216.410156,4142.051270,4087.692383,3984.102539,445.000000,4.000000,,,,0.000000,4.000000,4.000000,0.000000,4.000000,4.000000,4.000000,4.000000,4.000000,4.000000,1.000000,4.000000,4.000000,4.000000,2.000000,25.000000
1602278600.342295,68.000000,0.000000,3917.948730,4609.743652,4165.641113,4249.230957,3948.718018,4604.102539,3961.025635,3880.000000,4298.461426,4015.384521,4208.205078,4137.948730,4077.435791,3977.435791,479.000000,4.000000,,,,0.000000,4.000000,4.000000,0.000000,4.000000,4.000000,4.000000,4.000000,4.000000,4.000000,1.000000,4.000000,4.000000,4.000000,2.000000,25.000000
1602278600.350017,69.000000,0.000000,3908.718018,4608.205078,4162.563965,4241.538574,3940.512939,4607.692383,3961.025635,3877.435791,4294.871582,4013.846191,4197.436035,4131.282227,4058.974365,3968.718018,417.000000,4.000000,,,,0.000000,4.000000,4.000000,0.000000,4.000000,4.000000,4.000000,4.000000,4.000000,4.000000,1.000000,4.000000,4.000000,4.000000,2.000000,25.000000
1602278600.357839,70.000000,0.000000,3913.333252,4611.282227,4165.128418,4241.025879,3951.794922,4611.282227,3967.692383,3887.692383,4310.769043,4016.410156,4205.641113,4136.922852,4064.615479,3975.897461,471.000000,4.000000,,,,0.000000,4.000000,4.000000,0.000000,4.000000,4.000000,4.000000,4.000000,4.000000,4.000000,1.000000,4.000000,4.000000,4.000000,2.000000,25.000000
1602278600.365561,71.000000,0.000000,3922.564209,4604.102539,4167.179688,4247.692383,3951.794922,4607.179688,3969.743652,3895.897461,4319.487305,4020.000000,4220.000000,4144.615234,4084.102539,3983.589844,395.000000,4.000000,,,,0.000000,4.000000,4.000000,0.000000,4.000000,4.000000,4.000000,4.000000,4.000000,4.000000,1.000000,4.000000,4.000000,4.000000,2.000000,25.000000
1602278600.373484,72.000000,0.000000,3920.000000,4600.512695,4164.102539,4248.205078,3933.333252,4600.512695,3962.051270,3892.307617,4306.666504,4016.410156,4209.743652,4142.051270,4083.076904,3977.435791,414.000000,4.000000,,,,0.000000,4.000000,4.000000,0.000000,4.000000,4.000000,4.000000,4.000000,4.000000,4.000000,1.000000,4.000000,4.000000,4.000000,2.000000,25.000000
