title:your record name, start timestamp:1601229390.333910, stop timestamp:1601229393.360896, headset type:EPOC, headset serial:29380889, headset firmware:1e00, subject name:alzaabi.su, channels:38, sampling rate:128, samples:388       , version:2.0
Timestamp,EEG.Counter,EEG.Interpolated,EEG.AF3,EEG.F7,EEG.F3,EEG.FC5,EEG.T7,EEG.P7,EEG.O1,EEG.O2,EEG.P8,EEG.T8,EEG.FC6,EEG.F4,EEG.F8,EEG.AF4,EEG.RawCq,EEG.Battery,MarkerIndex,MarkerType,MarkerValueInt,EEG.MarkerHardware,CQ.AF3,CQ.F7,CQ.F3,CQ.FC5,CQ.T7,CQ.P7,CQ.O1,CQ.O2,CQ.P8,CQ.T8,CQ.FC6,CQ.F4,CQ.F8,CQ.AF4,CQ.Overall
1601229390.333910,34.000000,0.000000,3914.358887,4639.487305,4138.461426,4286.153809,4009.230713,4620.512695,3965.128174,3868.718018,4313.333496,4018.974365,4216.410156,4144.615234,4095.897461,4032.820557,0.000000,4.000000,,,,0.000000,2.000000,4.000000,4.000000,4.000000,4.000000,4.000000,4.000000,4.000000,4.000000,4.000000,2.000000,4.000000,4.000000,1.000000,41.666668
1601229390.341646,35.000000,0.000000,3919.487061,4633.846191,4133.333496,4278.974121,3996.923096,4616.922852,3951.794922,3864.615479,4311.282227,4017.435791,4211.794922,4134.358887,4074.358887,4032.820557,0.000000,4.000000,,,,0.000000,2.000000,4.000000,4.000000,4.000000,4.000000,4.000000,4.000000,4.000000,4.000000,4.000000,2.000000,4.000000,4.000000,1.000000,41.666668
1601229390.349481,36.000000,0.000000,3909.230713,4628.717773,4132.307617,4274.358887,3989.230713,4604.615234,3950.256348,3863.076904,4304.615234,4014.871826,4204.102539,4127.179688,4061.025635,4035.897461,0.000000,4.000000,,,,0.000000,2.000000,4.000000,4.000000,4.000000,4.000000,4.000000,4.000000,4.000000,4.000000,4.000000,2.000000,4.000000,4.000000,1.000000,41.666668
1601229390.357216,37.000000,0.000000,3905.128174,4639.487305,4132.820313,4280.000000,3996.410156,4604.102539,3961.538574,3865.128174,4303.077148,4015.897461,4209.230957,4132.307617,4080.000000,4037.435791,0.000000,4.000000,,,,0.000000,2.000000,4.000000,4.000000,4.000000,4.000000,4.000000,4.000000,4.000000,4.000000,4.000000,2.000000,4.000000,4.000000,1.000000,41.666668
1601229390.365159,38.000000,0.000000,3915.384521,4645.128418,4134.358887,4284.102539,3995.897461,4613.846191,3964.102539,3872.307617,4313.846191,4024.615479,4216.922852,4133.846191,4094.871826,4035.384521,0.000000,4.000000,,,,0.000000,2.000000,4.000000,4.000000,4.000000,4.000000,4.000000,4.000000,4.000000,4.000000,4.000000,2.000000,4.000000,4.000000,1.000000,41.666668
1601229390.373002,39.000000,0.000000,3921.025635,4638.461426,4137.436035,4287.179688,3998.461426,4623.589844,3965.641113,3876.410156,4325.641113,4033.846191,4216.410156,4132.820313,4091.794922,4032.820557,0.000000,4.000000,,,,0.000000,2.000000,4.000000,4.000000,4.000000,4.000000,4.000000,4.000000,4.000000,4.000000,4.000000,2.000000,4.000000,4.000000,1.000000,41.666668
1601229390.380944,40.000000,0.000000,3917.435791,4636.922852,4135.897461,4288.205078,4005.128174,4618.974121,3968.205078,3867.692383,4317.436035,4029.230713,4213.846191,4134.871582,4089.743652,4036.923096,0.000000,4.000000,,,,0.000000,2.000000,4.000000,4.000000,4.000000,4.000000,4.000000,4.000000,4.000000,4.000000,4.000000,2.000000,4.000000,4.000000,1.000000,41.666668
1601229390.388787,41.000000,0.000000,3916.923096,4646.666504,4140.512695,4282.563965,3997.948730,4610.769043,3960.512939,3864.102539,4309.743652,4028.718018,4218.974121,4137.948730,4094.358887,4038.461426,0.000000,4.000000,,,,0.000000,2.000000,4.000000,4.000000,4.000000,4.000000,4.000000,4.000000,4.000000,4.000000,4.000000,2.000000,4.000000,4.000000,1.000000,41.666668
1601229390.396728,42.000000,0.000000,3919.487061,4652.820313,4145.128418,4276.922852,3988.718018,4612.820313,3952.820557,3870.256348,4314.871582,4036.923096,4221.538574,4141.025879,4093.333252,4040.000000,0.000000,4.000000,,,,0.000000,2.000000,4.000000,4.000000,4.000000,4.000000,4.000000,4.000000,4.000000,4.000000,4.000000,2.000000,4.000000,4.000000,1.000000,41.666668
1601229390.404677,43.000000,0.000000,3920.512939,4652.307617,4145.128418,4275.897461,3993.333252,4615.384766,3953.846191,3871.794922,4312.307617,4030.769287,4214.871582,4141.538574,4090.256348,4043.589844,0.000000,4.000000,,,,0.000000,2.000000,4.000000,4.000000,4.000000,4.000000,4.000000,4.000000,4.000000,4.000000,4.000000,2.000000,4.000000,4.000000,1.000000,41.666668
1601229390.412526,44.000000,0.000000,3918.461426,4640.000000,4153.846191,4272.307617,3994.358887,4610.769043,3956.923096,3866.666748,4304.615234,4020.000000,4211.282227,4134.358887,4085.128174,4041.025635,0.000000,4.000000,,,,0.000000,2.000000,4.000000,4.000000,4.000000,4.000000,4.000000,4.000000,4.000000,4.000000,4.000000,2.000000,4.000000,4.000000,1.000000,41.666668
1601229390.420376,45.000000,0.000000,3913.846191,4626.153809,4156.410156,4268.717773,3983.076904,4608.717773,3955.897461,3863.589844,4302.051270,4021.025635,4213.333496,4127.692383,4078.974365,4034.871826,0.000000,4.000000,,,,0.000000,2.000000,4.000000,4.000000,4.000000,4.000000,4.000000,4.000000,4.000000,4.000000,4.000000,2.000000,4.000000,4.000000,1.000000,41.666668
1601229390.428115,46.000000,0.000000,3912.307617,4632.820313,4146.153809,4275.897461,3985.128174,4616.922852,3962.564209,3868.205078,4306.666504,4026.153809,4214.358887,4131.794922,4085.128174,4035.384521,0.000000,4.000000,,,,0.000000,2.000000,4.000000,4.000000,4.000000,4.000000,4.000000,4.000000,4.000000,4.000000,4.000000,2.000000,4.000000,4.000000,1.000000,41.666668
1601229390.435955,47.000000,0.000000,3915.897461,4647.179688,4148.205078,4279.487305,4005.128174,4623.589844,3973.846191,3873.846191,4311.794922,4027.692383,4217.436035,4140.512695,4091.281982,4040.512939,0.000000,4.000000,,,,0.000000,2.000000,4.000000,4.000000,4.000000,4.000000,4.000000,4.000000,4.000000,4.000000,4.000000,2.000000,4.000000,4.000000,1.000000,41.666668
1601229390.443695,48.000000,0.000000,3918.461426,4650.256348,4158.974121,4275.897461,4012.307617,4620.512695,3970.256348,3874.871826,4318.461426,4033.333252,4222.563965,4138.461426,4088.718018,4041.025635,0.000000,4.000000,,,,0.000000,2.000000,4.000000,4.000000,4.000000,4.000000,4.000000,4.000000,4.000000,4.000000,4.000000,2.000000,4.000000,4.000000,1.000000,41.666668
1601229390.451535,49.000000,0.000000,3918.974365,4647.179688,4154.358887,4276.410156,3996.923096,4608.717773,3957.948730,3872.820557,4320.000000,4035.897461,4219.487305,4134.358887,4089.743652,4040.000000,0.000000,4.000000,,,,0.000000,2.000000,4.000000,4.000000,4.000000,4.000000,4.000000,4.000000,4.000000,4.000000,4.000000,2.000000,4.000000,4.000000,1.000000,41.666668
1601229390.459273,50.000000,0.000000,3913.333252,4640.512695,4146.153809,4274.358887,3996.923096,4600.000000,3956.923096,3870.769287,4314.871582,4032.307617,4215.897461,4133.846191,4093.333252,4035.384521,0.000000,4.000000,,,,0.000000,2.000000,4.000000,4.000000,4.000000,4.000000,4.000000,4.000000,4.000000,4.000000,4.000000,2.000000,4.000000,4.000000,1.000000,41.666668
1601229390.467111,51.000000,0.000000,3906.666748,4624.615234,4148.205078,4262.051270,4001.025635,4598.461426,3956.923096,3867.692383,4306.666504,4026.153809,4214.871582,4130.769043,4083.076904,4030.769287,0.000000,4.000000,,,,0.000000,2.000000,4.000000,4.000000,4.000000,4.000000,4.000000,4.000000,4.000000,4.000000,4.000000,2.000000,4.000000,4.000000,1.000000,41.666668
1601229390.474849,52.000000,0.000000,3908.718018,4626.666504,4151.282227,4261.538574,3984.615479,4605.641113,3956.410156,3870.256348,4308.205078,4027.692383,4213.333496,4129.230957,4081.025635,4031.281982,0.000000,4.000000,,,,0.000000,2.000000,4.000000,4.000000,4.000000,4.000000,4.000000,4.000000,4.000000,4.000000,4.000000,2.000000,4.000000,4.000000,1.000000,41.666668
1601229390.482687,53.000000,0.000000,3917.435791,4645.641113,4155.897461,4274.871582,3981.538574,4618.461426,3968.205078,3879.487061,4319.487305,4035.897461,4213.333496,4133.333496,4096.410156,4036.410156,0.000000,4.000000,,,,0.000000,2.000000,4.000000,4.000000,4.000000,4.000000,4.000000,4.000000,4.000000,4.000000,4.000000,2.000000,4.000000,4.000000,1.000000,41.666668
1601229390.490424,54.000000,0.000000,3920.512939,4647.179688,4158.461426,4280.512695,4003.076904,4626.666504,3980.000000,3882.051270,4326.666504,4038.974365,4216.922852,4132.820313,4098.974121,4034.871826,0.000000,4.000000,,,,0.000000,2.000000,4.000000,4.000000,4.000000,4.000000,4.000000,4.000000,4.000000,4.000000,4.000000,2.000000,4.000000,4.000000,1.000000,41.666668
1601229390.498261,55.000000,0.000000,3917.435791,4632.307617,4151.282227,4271.794922,3998.461426,4617.948730,3968.205078,3873.333252,4317.436035,4034.358887,4215.897461,4127.692383,4078.974365,4032.820557,0.000000,4.000000,,,,0.000000,2.000000,4.000000,4.000000,4.000000,4.000000,4.000000,4.000000,4.000000,4.000000,4.000000,2.000000,4.000000,4.000000,1.000000,41.666668
1601229390.505997,56.000000,0.000000,3914.358887,4632.307617,4146.666504,4263.077148,3976.923096,4608.205078,3955.384521,3867.692383,4310.256348,4030.256348,4212.307617,4125.128418,4071.794922,4031.281982,0.000000,4.000000,,,,0.000000,2.000000,4.000000,4.000000,4.000000,4.000000,4.000000,4.000000,4.000000,4.000000,4.000000,2.000000,4.000000,4.000000,1.000000,41.666668
1601229390.513834,57.000000,0.000000,3915.897461,4635.384766,4149.230957,4259.487305,3982.051270,4610.256348,3958.461426,3871.794922,4316.922852,4030.769287,4214.358887,4127.179688,4083.589844,4033.333252,0.000000,4.000000,,,,0.000000,2.000000,4.000000,4.000000,4.000000,4.000000,4.000000,4.000000,4.000000,4.000000,4.000000,2.000000,4.000000,4.000000,1.000000,41.666668
1601229390.521569,58.000000,0.000000,3919.487061,4626.153809,4152.307617,4260.000000,3995.384521,4612.820313,3964.102539,3875.897461,4323.077148,4034.871826,4219.487305,4134.871582,4092.307617,4034.871826,0.000000,4.000000,,,,0.000000,2.000000,4.000000,4.000000,4.000000,4.000000,4.000000,4.000000,4.000000,4.000000,4.000000,2.000000,4.000000,4.000000,1.000000,41.666668
1601229390.529405,59.000000,0.000000,3913.333252,4624.102539,4149.230957,4257.436035,3988.718018,4605.128418,3963.076904,3869.230713,4315.384766,4034.871826,4215.897461,4137.436035,4086.153809,4031.794922,0.000000,4.000000,,,,0.000000,2.000000,4.000000,4.000000,4.000000,4.000000,4.000000,4.000000,4.000000,4.000000,4.000000,2.000000,4.000000,4.000000,1.000000,41.666668
1601229390.537140,60.000000,0.000000,3907.179443,4636.410156,4147.692383,4258.974121,3984.615479,4604.615234,3962.051270,3865.128174,4308.717773,4035.897461,4210.256348,4133.333496,4080.512939,4029.230713,0.000000,4.000000,,,,0.000000,2.000000,4.000000,4.000000,4.000000,4.000000,4.000000,4.000000,4.000000,4.000000,4.000000,2.000000,4.000000,4.000000,1.000000,41.666668
1601229390.545082,61.000000,0.000000,3909.743652,4641.025879,4148.717773,4267.179688,3992.820557,4613.333496,3962.051270,3871.281982,4314.358887,4044.102539,4212.307617,4134.358887,4088.718018,4033.846191,0.000000,4.000000,,,,0.000000,2.000000,4.000000,4.000000,4.000000,4.000000,4.000000,4.000000,4.000000,4.000000,4.000000,2.000000,4.000000,4.000000,1.000000,41.666668
1601229390.552925,62.000000,0.000000,3911.281982,4635.897461,4149.230957,4267.179688,3986.153809,4613.333496,3960.512939,3874.871826,4320.000000,4045.128174,4213.846191,4137.436035,4097.436035,4034.358887,0.000000,4.000000,,,,0.000000,2.000000,4.000000,4.000000,4.000000,4.000000,4.000000,4.000000,4.000000,4.000000,4.000000,2.000000,4.000000,4.000000,1.000000,41.666668
1601229390.560866,63.000000,0.000000,3907.692383,4632.307617,4149.230957,4262.051270,3983.076904,4608.205078,3963.076904,3876.410156,4321.025879,4042.564209,4210.769043,4134.358887,4090.769287,4030.256348,0.000000,4.000000,,,,0.000000,2.000000,4.000000,4.000000,4.000000,4.000000,4.000000,4.000000,4.000000,4.000000,4.000000,2.000000,4.000000,4.000000,1.000000,41.666668
1601229390.568708,64.000000,0.000000,3903.589844,4630.256348,4146.666504,4260.000000,3997.948730,4606.153809,3963.589844,3876.410156,4316.410156,4042.564209,4209.230957,4129.743652,4078.461426,4028.718018,378.000000,4.000000,,,,0.000000,2.000000,4.000000,4.000000,4.000000,4.000000,4.000000,4.000000,4.000000,4.000000,4.000000,2.000000,4.000000,4.000000,1.000000,41.666668
1601229390.576649,65.000000,0.000000,3903.076904,4634.358887,4147.179688,4263.077148,3994.358887,4603.589844,3958.461426,3873.846191,4312.307617,4041.538574,4210.769043,4129.230957,4082.564209,4025.128174,436.000000,4.000000,,,,0.000000,2.000000,4.000000,4.000000,4.000000,4.000000,4.000000,4.000000,4.000000,4.000000,4.000000,2.000000,4.000000,4.000000,1.000000,41.666668
1601229390.584491,66.000000,0.000000,3910.769287,4646.666504,4149.743652,4266.666504,3976.923096,4603.589844,3957.948730,3870.256348,4314.358887,4042.051270,4212.820313,4131.282227,4090.256348,4027.692383,384.000000,4.000000,,,,0.000000,2.000000,4.000000,4.000000,4.000000,4.000000,4.000000,4.000000,4.000000,4.000000,4.000000,2.000000,4.000000,4.000000,1.000000,41.666668
1601229390.592431,67.000000,0.000000,3914.871826,4652.820313,4147.179688,4266.666504,3984.102539,4609.743652,3962.564209,3870.769287,4316.410156,4047.179443,4212.307617,4132.820313,4087.179443,4029.743652,436.000000,4.000000,,,,0.000000,2.000000,4.000000,4.000000,4.000000,4.000000,4.000000,4.000000,4.000000,4.000000,4.000000,2.000000,4.000000,4.000000,1.000000,41.666668
1601229390.600272,68.000000,0.000000,3911.794922,4641.538574,4148.717773,4260.512695,3987.179443,4610.769043,3960.000000,3868.205078,4308.717773,4042.051270,4208.205078,4131.282227,4083.589844,4028.205078,459.000000,4.000000,,,,0.000000,2.000000,4.000000,4.000000,4.000000,4.000000,4.000000,4.000000,4.000000,4.000000,4.000000,2.000000,4.000000,4.000000,1.000000,41.666668
1601229390.608012,69.000000,0.000000,3914.358887,4633.333496,4157.948730,4266.153809,3982.051270,4609.743652,3958.974365,3866.666748,4309.230957,4038.974365,4208.717773,4132.307617,4090.256348,4028.718018,437.000000,4.000000,,,,0.000000,2.000000,4.000000,4.000000,4.000000,4.000000,4.000000,4.000000,4.000000,4.000000,4.000000,2.000000,4.000000,4.000000,1.000000,41.666668
1601229390.615851,70.000000,0.000000,3915.897461,4626.666504,4158.974121,4269.743652,3991.794922,4606.666504,3955.384521,3865.641113,4312.307617,4042.564209,4208.717773,4135.384766,4089.230713,4032.307617,451.000000,4.000000,,,,0.000000,2.000000,4.000000,4.000000,4.000000,4.000000,4.000000,4.000000,4.000000,4.000000,4.000000,2.000000,4.000000,4.000000,1.000000,41.666668
1601229390.623591,71.000000,0.000000,3905.641113,4620.512695,4147.692383,4255.384766,3992.307617,4598.461426,3947.692383,3861.025635,4303.589844,4037.435791,4203.077148,4129.230957,4073.333252,4028.205078,353.000000,4.000000,,,,0.000000,2.000000,4.000000,4.000000,4.000000,4.000000,4.000000,4.000000,4.000000,4.000000,4.000000,2.000000,4.000000,4.000000,1.000000,41.666668
1601229390.631430,72.000000,0.000000,3900.512939,4625.128418,4143.589844,4247.179688,3973.333252,4594.358887,3947.692383,3861.025635,4297.948730,4033.333252,4201.538574,4123.589844,4067.179443,4028.205078,403.000000,4.000000,,,,0.000000,2.000000,4.000000,4.000000,4.000000,4.000000,4.000000,4.000000,4.000000,4.000000,4.000000,2.000000,4.000000,4.000000,1.000000,41.666668
1601229390.639169,73.000000,0.000000,3906.666748,4634.871582,4147.179688,4258.461426,3973.333252,4598.974121,3952.820557,3869.743652,4305.641113,4044.615479,4207.179688,4129.743652,4082.051270,4030.256348,407.000000,4.000000,,,,0.000000,2.000000,4.000000,4.000000,4.000000,4.000000,4.000000,4.000000,4.000000,4.000000,4.000000,2.000000,4.000000,4.000000,1.000000,41.666668
1601229390.647008,74.000000,0.000000,3906.666748,4638.974121,4146.153809,4269.743652,3988.718018,4604.102539,3953.846191,3876.923096,4314.358887,4056.410156,4209.743652,4135.384766,4087.692383,4029.743652,427.000000,4.000000,,,,0.000000,2.000000,4.000000,4.000000,4.000000,4.000000,4.000000,4.000000,4.000000,4.000000,4.000000,2.000000,4.000000,4.000000,1.000000,41.666668
1601229390.654746,75.000000,0.000000,3898.974365,4634.871582,4144.102539,4263.589844,3987.692383,4604.102539,3956.923096,3874.358887,4313.846191,4053.333252,4204.102539,4127.179688,4076.923096,4030.769287,50.000000,4.000000,,,,0.000000,2.000000,4.000000,4.000000,4.000000,4.000000,4.000000,4.000000,4.000000,4.000000,4.000000,2.000000,4.000000,4.000000,1.000000,41.666668
1601229390.662584,76.000000,0.000000,3896.923096,4628.717773,4144.615234,4250.256348,3983.589844,4600.000000,3955.384521,3869.230713,4308.205078,4050.256348,4198.974121,4119.487305,4075.384521,4031.281982,241.000000,4.000000,,,,0.000000,2.000000,4.000000,4.000000,4.000000,4.000000,4.000000,4.000000,4.000000,4.000000,4.000000,2.000000,4.000000,4.000000,1.000000,41.666668
1601229390.670321,77.000000,0.000000,3902.051270,4633.846191,4147.692383,4256.922852,4000.000000,4604.102539,3949.230713,3874.358887,4314.358887,4064.102539,4204.102539,4127.179688,4085.641113,4028.718018,349.000000,4.000000,,,,0.000000,2.000000,4.000000,4.000000,4.000000,4.000000,4.000000,4.000000,4.000000,4.000000,4.000000,2.000000,4.000000,4.000000,1.000000,41.666668
1601229390.678157,78.000000,0.000000,3903.589844,4640.512695,4146.153809,4268.205078,4009.743652,4614.358887,3958.461426,3883.076904,4325.641113,4071.281982,4212.820313,4134.358887,4089.743652,4028.205078,427.000000,4.000000,,,,0.000000,2.000000,4.000000,4.000000,4.000000,4.000000,4.000000,4.000000,4.000000,4.000000,4.000000,2.000000,4.000000,4.000000,1.000000,41.666668
1601229390.685893,79.000000,0.000000,3898.461426,4630.256348,4140.512695,4257.436035,3989.743652,4609.230957,3967.179443,3879.487061,4321.025879,4058.461426,4207.179688,4129.230957,4083.589844,4029.230713,50.000000,4.000000,,,,0.000000,2.000000,4.000000,4.000000,4.000000,4.000000,4.000000,4.000000,4.000000,4.000000,4.000000,2.000000,4.000000,4.000000,1.000000,41.666668
1601229390.693729,80.000000,0.000000,3896.923096,4621.538574,4138.461426,4247.179688,3975.384521,4597.948730,3954.358887,3867.692383,4309.230957,4052.307617,4201.025879,4127.692383,4078.974365,4029.743652,241.000000,4.000000,,,,0.000000,2.000000,4.000000,4.000000,4.000000,4.000000,4.000000,4.000000,4.000000,4.000000,4.000000,2.000000,4.000000,4.000000,1.000000,41.666668
1601229390.701465,81.000000,0.000000,3902.051270,4623.077148,4145.128418,4251.282227,3980.000000,4595.384766,3941.025635,3861.538574,4303.077148,4056.923096,4204.102539,4133.846191,4076.923096,4030.769287,349.000000,4.000000,,,,0.000000,2.000000,4.000000,4.000000,4.000000,4.000000,4.000000,4.000000,4.000000,4.000000,4.000000,2.000000,4.000000,4.000000,1.000000,41.666668
1601229390.709300,82.000000,0.000000,3905.128174,4622.563965,4148.717773,4249.743652,3977.948730,4594.358887,3944.615479,3863.076904,4300.512695,4057.948730,4204.615234,4134.358887,4072.820557,4033.333252,427.000000,4.000000,,,,0.000000,2.000000,4.000000,4.000000,4.000000,4.000000,4.000000,4.000000,4.000000,4.000000,4.000000,2.000000,4.000000,4.000000,1.000000,41.666668
1601229390.717035,83.000000,0.000000,3903.589844,4622.051270,4144.102539,4244.102539,3972.307617,4593.846191,3950.256348,3866.153809,4302.563965,4056.410156,4200.512695,4129.230957,4073.333252,4040.000000,50.000000,4.000000,,,,0.000000,2.000000,4.000000,4.000000,4.000000,4.000000,4.000000,4.000000,4.000000,4.000000,4.000000,2.000000,4.000000,4.000000,1.000000,41.666668
1601229390.724870,84.000000,0.000000,3903.589844,4621.538574,4144.102539,4248.205078,3978.974365,4595.897461,3944.102539,3866.153809,4307.179688,4054.871826,4204.102539,4129.230957,4083.076904,4035.384521,241.000000,4.000000,,,,0.000000,2.000000,4.000000,4.000000,4.000000,4.000000,4.000000,4.000000,4.000000,4.000000,4.000000,2.000000,4.000000,4.000000,1.000000,41.666668
1601229390.732605,85.000000,0.000000,3902.051270,4606.666504,4144.615234,4248.205078,3981.025635,4590.256348,3933.333252,3863.076904,4301.538574,4049.230713,4206.666504,4127.692383,4081.025635,4023.076904,349.000000,4.000000,,,,0.000000,2.000000,4.000000,4.000000,4.000000,4.000000,4.000000,4.000000,4.000000,4.000000,4.000000,2.000000,4.000000,4.000000,1.000000,41.666668
1601229390.740546,86.000000,0.000000,3897.435791,4602.563965,4138.974121,4244.102539,3974.871826,4587.179688,3941.538574,3866.666748,4298.974121,4048.718018,4201.538574,4122.051270,4071.794922,4018.974365,427.000000,4.000000,,,,0.000000,2.000000,4.000000,4.000000,4.000000,4.000000,4.000000,4.000000,4.000000,4.000000,4.000000,2.000000,4.000000,4.000000,1.000000,41.666668
1601229390.748387,87.000000,0.000000,3899.487061,4614.871582,4139.487305,4246.153809,3969.230713,4594.358887,3955.897461,3873.333252,4305.128418,4057.948730,4202.051270,4122.563965,4077.435791,4023.076904,50.000000,4.000000,,,,0.000000,2.000000,4.000000,4.000000,4.000000,4.000000,4.000000,4.000000,4.000000,4.000000,4.000000,2.000000,4.000000,4.000000,1.000000,41.666668
1601229390.756328,88.000000,0.000000,3905.641113,4620.512695,4145.641113,4252.307617,3971.281982,4597.948730,3953.846191,3873.333252,4311.794922,4071.281982,4210.256348,4128.205078,4082.564209,4022.051270,241.000000,4.000000,,,,0.000000,2.000000,4.000000,4.000000,4.000000,4.000000,4.000000,4.000000,4.000000,4.000000,4.000000,2.000000,4.000000,4.000000,1.000000,41.666668
1601229390.764170,89.000000,0.000000,3903.076904,4624.615234,4145.128418,4254.358887,3980.512939,4594.358887,3947.692383,3870.256348,4314.358887,4077.435791,4211.282227,4130.256348,4075.384521,4023.076904,349.000000,4.000000,,,,0.000000,2.000000,4.000000,4.000000,4.000000,4.000000,4.000000,4.000000,4.000000,4.000000,4.000000,2.000000,4.000000,4.000000,1.000000,41.666668
1601229390.772110,90.000000,0.000000,3899.487061,4634.871582,4142.051270,4251.794922,3985.641113,4595.384766,3953.846191,3872.820557,4314.358887,4072.820557,4207.179688,4129.743652,4081.025635,4024.615479,427.000000,4.000000,,,,0.000000,2.000000,4.000000,4.000000,4.000000,4.000000,4.000000,4.000000,4.000000,4.000000,4.000000,2.000000,4.000000,4.000000,1.000000,41.666668
1601229390.779950,91.000000,0.000000,3902.564209,4635.897461,4145.641113,4249.230957,3983.589844,4593.333496,3951.794922,3870.769287,4310.256348,4064.102539,4206.153809,4127.179688,4090.256348,4022.564209,50.000000,4.000000,,,,0.000000,2.000000,4.000000,4.000000,4.000000,4.000000,4.000000,4.000000,4.000000,4.000000,4.000000,2.000000,4.000000,4.000000,1.000000,41.666668
1601229390.787889,92.000000,0.000000,3903.589844,4631.794922,4148.717773,4251.794922,3987.692383,4589.230957,3941.025635,3866.153809,4306.153809,4063.589844,4204.615234,4128.717773,4082.051270,4023.076904,241.000000,4.000000,,,,0.000000,2.000000,4.000000,4.000000,4.000000,4.000000,4.000000,4.000000,4.000000,4.000000,4.000000,2.000000,4.000000,4.000000,1.000000,41.666668
1601229390.795728,93.000000,0.000000,3901.025635,4631.282227,4148.205078,4255.384766,3989.743652,4597.436035,3947.692383,3872.820557,4309.743652,4066.666748,4202.051270,4133.333496,4077.435791,4024.615479,349.000000,4.000000,,,,0.000000,2.000000,4.000000,4.000000,4.000000,4.000000,4.000000,4.000000,4.000000,4.000000,4.000000,2.000000,4.000000,4.000000,1.000000,41.666668
1601229390.803467,94.000000,0.000000,3903.076904,4630.256348,4145.641113,4258.461426,3981.025635,4606.153809,3964.615479,3876.410156,4309.743652,4064.102539,4204.615234,4134.358887,4083.589844,4025.128174,427.000000,4.000000,,,,0.000000,2.000000,4.000000,4.000000,4.000000,4.000000,4.000000,4.000000,4.000000,4.000000,4.000000,2.000000,4.000000,4.000000,1.000000,41.666668
1601229390.811305,95.000000,0.000000,3909.230713,4637.948730,4146.153809,4258.461426,3976.923096,4603.589844,3963.076904,3871.281982,4304.102539,4063.076904,4207.692383,4135.897461,4079.487061,4026.666748,50.000000,4.000000,,,,0.000000,2.000000,4.000000,4.000000,4.000000,4.000000,4.000000,4.000000,4.000000,4.000000,4.000000,2.000000,4.000000,4.000000,1.000000,41.666668
1601229390.819043,96.000000,0.000000,3910.256348,4643.589844,4148.717773,4254.358887,3979.487061,4592.820313,3947.179443,3868.718018,4299.487305,4066.153809,4205.641113,4140.000000,4075.897461,4026.153809,241.000000,4.000000,,,,0.000000,2.000000,4.000000,4.000000,4.000000,4.000000,4.000000,4.000000,4.000000,4.000000,4.000000,2.000000,4.000000,4.000000,1.000000,41.666668
1601229390.826881,97.000000,0.000000,3905.128174,4632.820313,4147.179688,4252.820313,3985.641113,4589.230957,3945.128174,3868.205078,4299.487305,4069.743652,4203.589844,4135.384766,4083.076904,4026.666748,349.000000,4.000000,,,,0.000000,2.000000,4.000000,4.000000,4.000000,4.000000,4.000000,4.000000,4.000000,4.000000,4.000000,2.000000,4.000000,4.000000,1.000000,41.666668
1601229390.834618,98.000000,0.000000,3902.051270,4624.102539,4146.153809,4253.846191,3994.871826,4594.871582,3953.333252,3863.076904,4299.487305,4072.820557,4205.128418,4127.692383,4074.871826,4040.512939,427.000000,4.000000,,,,0.000000,2.000000,4.000000,4.000000,4.000000,4.000000,4.000000,4.000000,4.000000,4.000000,4.000000,2.000000,4.000000,4.000000,1.000000,41.666668
1601229390.842456,99.000000,0.000000,3899.487061,4629.743652,4147.179688,4255.897461,3995.897461,4605.128418,3961.025635,3866.666748,4304.615234,4080.512939,4210.256348,4128.717773,4065.128174,4045.641113,50.000000,4.000000,,,,0.000000,2.000000,4.000000,4.000000,4.000000,4.000000,4.000000,4.000000,4.000000,4.000000,4.000000,2.000000,4.000000,4.000000,1.000000,41.666668
1601229390.850192,100.000000,0.000000,3896.923096,4632.820313,4145.641113,4251.282227,3986.666748,4608.205078,3964.615479,3874.871826,4312.820313,4084.102539,4210.256348,4128.205078,4079.487061,4030.256348,241.000000,4.000000,,,,0.000000,2.000000,4.000000,4.000000,4.000000,4.000000,4.000000,4.000000,4.000000,4.000000,4.000000,2.000000,4.000000,4.000000,1.000000,41.666668
1601229390.858029,101.000000,0.000000,3898.974365,4629.743652,4145.641113,4251.282227,3991.794922,4610.769043,3969.743652,3877.435791,4320.000000,4083.589844,4209.230957,4129.230957,4092.820557,4018.974365,349.000000,4.000000,,,,0.000000,2.000000,4.000000,4.000000,4.000000,4.000000,4.000000,4.000000,4.000000,4.000000,4.000000,2.000000,4.000000,4.000000,1.000000,41.666668
1601229390.865765,102.000000,0.000000,3895.897461,4620.000000,4143.077148,4246.666504,3991.794922,4606.153809,3968.718018,3872.820557,4318.974121,4074.871826,4207.692383,4128.717773,4074.871826,4022.564209,427.000000,4.000000,,,,0.000000,2.000000,4.000000,4.000000,4.000000,4.000000,4.000000,4.000000,4.000000,4.000000,4.000000,2.000000,4.000000,4.000000,1.000000,41.666668
1601229390.873601,103.000000,0.000000,3886.153809,4611.794922,4134.871582,4238.461426,3971.281982,4587.179688,3955.384521,3865.128174,4310.256348,4063.589844,4197.436035,4118.461426,4056.923096,4015.384521,50.000000,4.000000,,,,0.000000,2.000000,4.000000,4.000000,4.000000,4.000000,4.000000,4.000000,4.000000,4.000000,4.000000,2.000000,4.000000,4.000000,1.000000,41.666668
1601229390.881336,104.000000,0.000000,3894.871826,4620.512695,4140.000000,4248.205078,3970.769287,4581.025879,3951.794922,3865.128174,4309.230957,4067.692383,4194.358887,4119.487305,4067.692383,4007.179443,241.000000,4.000000,,,,0.000000,2.000000,4.000000,4.000000,4.000000,4.000000,4.000000,4.000000,4.000000,4.000000,4.000000,2.000000,4.000000,4.000000,1.000000,41.666668
1601229390.889172,105.000000,0.000000,3916.923096,4645.128418,4158.974121,4269.230957,3993.846191,4602.051270,3968.205078,3875.897461,4321.538574,4087.179443,4208.717773,4135.897461,4086.666748,4015.897461,349.000000,4.000000,,,,0.000000,2.000000,4.000000,4.000000,4.000000,4.000000,4.000000,4.000000,4.000000,4.000000,4.000000,2.000000,4.000000,4.000000,1.000000,41.666668
1601229390.896906,106.000000,0.000000,3912.820557,4651.794922,4158.974121,4272.307617,3996.923096,4612.307617,3970.256348,3871.794922,4320.000000,4089.230713,4213.846191,4135.384766,4086.666748,4023.076904,427.000000,4.000000,,,,0.000000,2.000000,4.000000,4.000000,4.000000,4.000000,4.000000,4.000000,4.000000,4.000000,4.000000,2.000000,4.000000,4.000000,1.000000,41.666668
1601229390.904848,107.000000,0.000000,3896.923096,4640.000000,4143.589844,4258.974121,3987.179443,4602.563965,3954.871826,3858.974365,4304.102539,4072.820557,4201.025879,4121.025879,4073.333252,4015.897461,50.000000,4.000000,,,,0.000000,2.000000,4.000000,4.000000,4.000000,4.000000,4.000000,4.000000,4.000000,4.000000,4.000000,2.000000,4.000000,4.000000,1.000000,41.666668
1601229390.912690,108.000000,0.000000,3897.948730,4629.230957,4143.077148,4251.282227,3994.871826,4595.384766,3950.769287,3861.538574,4300.000000,4069.230713,4195.897461,4120.000000,4066.666748,4011.794922,241.000000,4.000000,,,,0.000000,2.000000,4.000000,4.000000,4.000000,4.000000,4.000000,4.000000,4.000000,4.000000,4.000000,2.000000,4.000000,4.000000,1.000000,41.666668
1601229390.920631,109.000000,0.000000,3899.487061,4624.102539,4147.692383,4251.282227,3996.923096,4591.282227,3952.307617,3867.179443,4306.153809,4077.948730,4203.077148,4123.077148,4069.743652,4014.358887,349.000000,4.000000,,,,0.000000,2.000000,4.000000,4.000000,4.000000,4.000000,4.000000,4.000000,4.000000,4.000000,4.000000,2.000000,4.000000,4.000000,1.000000,41.666668
1601229390.928472,110.000000,0.000000,3889.743652,4625.641113,4139.487305,4251.282227,3983.589844,4589.743652,3949.230713,3865.641113,4308.717773,4081.025635,4208.205078,4120.512695,4073.333252,4016.923096,427.000000,4.000000,,,,0.000000,2.000000,4.000000,4.000000,4.000000,4.000000,4.000000,4.000000,4.000000,4.000000,4.000000,2.000000,4.000000,4.000000,1.000000,41.666668
1601229390.936413,111.000000,0.000000,3889.743652,4632.307617,4135.897461,4252.307617,3980.512939,4592.820313,3952.307617,3868.718018,4310.256348,4084.615479,4207.692383,4123.589844,4076.923096,4016.923096,50.000000,4.000000,,,,0.000000,2.000000,4.000000,4.000000,4.000000,4.000000,4.000000,4.000000,4.000000,4.000000,4.000000,2.000000,4.000000,4.000000,1.000000,41.666668
1601229390.944253,112.000000,0.000000,3898.461426,4633.846191,4143.589844,4252.820313,3987.692383,4600.000000,3961.538574,3875.897461,4317.436035,4098.974121,4210.769043,4133.333496,4087.179443,4018.974365,241.000000,4.000000,,,,0.000000,2.000000,4.000000,4.000000,4.000000,4.000000,4.000000,4.000000,4.000000,4.000000,4.000000,2.000000,4.000000,4.000000,1.000000,41.666668
1601229390.952194,113.000000,0.000000,3901.025635,4620.000000,4147.179688,4250.769043,3986.153809,4602.563965,3964.102539,3876.923096,4322.051270,4108.717773,4216.410156,4138.461426,4094.358887,4019.487061,349.000000,4.000000,,,,0.000000,2.000000,4.000000,4.000000,4.000000,4.000000,4.000000,4.000000,4.000000,4.000000,4.000000,2.000000,4.000000,4.000000,1.000000,41.666668
1601229390.960034,114.000000,0.000000,3899.487061,4611.794922,4146.153809,4246.153809,3978.974365,4598.461426,3962.564209,3873.333252,4322.051270,4106.666504,4215.897461,4136.410156,4092.307617,4016.410156,427.000000,4.000000,,,,0.000000,2.000000,4.000000,4.000000,4.000000,4.000000,4.000000,4.000000,4.000000,4.000000,4.000000,2.000000,4.000000,4.000000,1.000000,41.666668
1601229390.967973,115.000000,0.000000,3893.846191,4618.461426,4144.102539,4245.128418,3977.435791,4590.256348,3957.948730,3866.666748,4315.897461,4099.487305,4210.256348,4132.307617,4085.641113,4015.897461,50.000000,4.000000,,,,0.000000,2.000000,4.000000,4.000000,4.000000,4.000000,4.000000,4.000000,4.000000,4.000000,4.000000,2.000000,4.000000,4.000000,1.000000,41.666668
1601229390.975812,116.000000,0.000000,3890.256348,4626.153809,4144.102539,4249.230957,3985.641113,4590.769043,3953.846191,3863.589844,4312.820313,4096.410156,4208.717773,4131.794922,4080.000000,4015.384521,241.000000,4.000000,,,,0.000000,2.000000,4.000000,4.000000,4.000000,4.000000,4.000000,4.000000,4.000000,4.000000,4.000000,2.000000,4.000000,4.000000,1.000000,41.666668
1601229390.983550,117.000000,0.000000,3890.256348,4623.589844,4142.563965,4251.794922,3988.205078,4592.307617,3947.692383,3859.487061,4306.666504,4091.794922,4205.641113,4128.717773,4071.794922,4013.846191,349.000000,4.000000,,,,0.000000,2.000000,4.000000,4.000000,4.000000,4.000000,4.000000,4.000000,4.000000,4.000000,4.000000,2.000000,4.000000,4.000000,1.000000,41.666668
1601229390.991388,118.000000,0.000000,3890.256348,4620.512695,4141.538574,4253.333496,3985.128174,4585.641113,3941.538574,3852.307617,4293.846191,4081.025635,4197.436035,4123.589844,4062.051270,4011.281982,427.000000,4.000000,,,,0.000000,2.000000,4.000000,4.000000,4.000000,4.000000,4.000000,4.000000,4.000000,4.000000,4.000000,2.000000,4.000000,4.000000,1.000000,41.666668
1601229390.999126,119.000000,0.000000,3896.923096,4626.153809,4147.692383,4252.307617,3989.743652,4583.589844,3945.641113,3851.281982,4291.282227,4074.871826,4196.410156,4127.692383,4055.384521,4015.384521,50.000000,4.000000,,,,0.000000,2.000000,4.000000,4.000000,4.000000,4.000000,4.000000,4.000000,4.000000,4.000000,4.000000,2.000000,4.000000,4.000000,1.000000,41.666668
1601229391.007071,120.000000,0.000000,3906.666748,4635.384766,4151.282227,4260.000000,4002.051270,4591.282227,3954.358887,3856.410156,4301.025879,4082.051270,4202.051270,4135.384766,4062.051270,4016.923096,241.000000,4.000000,,,,0.000000,2.000000,4.000000,4.000000,4.000000,4.000000,4.000000,4.000000,4.000000,4.000000,4.000000,2.000000,4.000000,4.000000,1.000000,41.666668
1601229391.014916,121.000000,0.000000,3903.076904,4633.846191,4143.077148,4266.153809,3993.846191,4587.692383,3945.641113,3855.897461,4297.436035,4081.538574,4201.538574,4127.179688,4071.794922,4013.333252,349.000000,4.000000,,,,0.000000,2.000000,4.000000,4.000000,4.000000,4.000000,4.000000,4.000000,4.000000,4.000000,4.000000,2.000000,4.000000,4.000000,1.000000,41.666668
1601229391.022861,122.000000,0.000000,3896.923096,4624.615234,4139.487305,4262.051270,3974.358887,4578.461426,3940.512939,3855.897461,4292.307617,4073.846191,4198.461426,4122.051270,4070.769287,4012.820557,427.000000,4.000000,,,,0.000000,2.000000,4.000000,4.000000,4.000000,4.000000,4.000000,4.000000,4.000000,4.000000,4.000000,2.000000,4.000000,4.000000,1.000000,41.666668
1601229391.030705,123.000000,0.000000,3902.051270,4629.230957,4149.743652,4261.538574,3980.000000,4591.282227,3956.410156,3867.692383,4304.102539,4083.076904,4203.589844,4136.922852,4071.794922,4017.948730,50.000000,4.000000,,,,0.000000,2.000000,4.000000,4.000000,4.000000,4.000000,4.000000,4.000000,4.000000,4.000000,4.000000,2.000000,4.000000,4.000000,1.000000,41.666668
1601229391.038550,124.000000,0.000000,3905.128174,4633.333496,4153.846191,4263.077148,3995.897461,4605.641113,3964.102539,3872.820557,4311.282227,4095.897461,4208.717773,4145.641113,4078.974365,4021.538574,241.000000,4.000000,,,,0.000000,2.000000,4.000000,4.000000,4.000000,4.000000,4.000000,4.000000,4.000000,4.000000,4.000000,2.000000,4.000000,4.000000,1.000000,41.666668
1601229391.046285,125.000000,0.000000,3902.564209,4622.563965,4148.205078,4262.051270,3988.205078,4597.948730,3953.846191,3866.666748,4306.666504,4093.846191,4208.717773,4138.461426,4076.410156,4021.025635,349.000000,4.000000,,,,0.000000,2.000000,4.000000,4.000000,4.000000,4.000000,4.000000,4.000000,4.000000,4.000000,4.000000,2.000000,4.000000,4.000000,1.000000,41.666668
1601229391.054121,126.000000,0.000000,3904.615479,4618.974121,4146.666504,4269.743652,3979.487061,4595.897461,3962.051270,3872.307617,4311.282227,4092.820557,4210.256348,4136.922852,4073.333252,4021.025635,427.000000,4.000000,,,,0.000000,2.000000,4.000000,4.000000,4.000000,4.000000,4.000000,4.000000,4.000000,4.000000,4.000000,2.000000,4.000000,4.000000,1.000000,41.666668
1601229391.061856,127.000000,0.000000,3903.589844,4623.589844,4145.641113,4271.794922,3990.256348,4603.077148,3972.820557,3876.923096,4317.948730,4098.974121,4209.743652,4137.948730,4076.410156,4022.564209,50.000000,4.000000,,,,0.000000,2.000000,4.000000,4.000000,4.000000,4.000000,4.000000,4.000000,4.000000,4.000000,4.000000,2.000000,4.000000,4.000000,1.000000,41.666668
1601229391.069691,128.000000,0.000000,3898.461426,4622.563965,4141.025879,4261.538574,3992.307617,4595.384766,3958.974365,3865.641113,4308.205078,4097.436035,4206.153809,4129.743652,4077.435791,4023.076904,241.000000,4.000000,,,,0.000000,2.000000,4.000000,4.000000,4.000000,4.000000,4.000000,4.000000,4.000000,4.000000,4.000000,2.000000,4.000000,4.000000,1.000000,41.666668
1601229391.077426,0.000000,0.000000,3905.128174,4629.743652,4146.153809,4265.641113,3984.102539,4596.410156,3955.897461,3865.641113,4307.692383,4097.436035,4210.769043,4132.820313,4084.102539,4022.564209,378.000000,4.000000,,,,0.000000,2.000000,4.000000,4.000000,4.000000,4.000000,4.000000,4.000000,4.000000,4.000000,4.000000,2.000000,4.000000,4.000000,1.000000,41.666668
1601229391.085260,1.000000,0.000000,3918.461426,4640.512695,4158.974121,4278.974121,3994.358887,4607.179688,3969.230713,3873.846191,4316.922852,4097.436035,4212.820313,4143.077148,4086.153809,4028.205078,433.000000,4.000000,,,,0.000000,2.000000,4.000000,4.000000,4.000000,4.000000,4.000000,4.000000,4.000000,4.000000,4.000000,2.000000,4.000000,4.000000,1.000000,41.666668
1601229391.092994,2.000000,0.000000,3916.923096,4636.410156,4152.820313,4281.025879,4003.589844,4602.051270,3964.615479,3865.128174,4309.743652,4090.769287,4207.179688,4136.922852,4076.410156,4030.769287,384.000000,4.000000,,,,0.000000,2.000000,4.000000,4.000000,4.000000,4.000000,4.000000,4.000000,4.000000,4.000000,4.000000,2.000000,4.000000,4.000000,1.000000,41.666668
1601229391.100935,3.000000,0.000000,3907.692383,4626.153809,4154.358887,4273.333496,3987.179443,4591.282227,3948.205078,3851.281982,4293.333496,4085.641113,4203.589844,4127.692383,4070.769287,4026.666748,436.000000,4.000000,,,,0.000000,2.000000,4.000000,4.000000,4.000000,4.000000,4.000000,4.000000,4.000000,4.000000,4.000000,2.000000,4.000000,4.000000,1.000000,41.666668
1601229391.108775,4.000000,0.000000,3902.051270,4629.230957,4187.692383,4268.717773,3982.051270,4596.922852,3950.256348,3852.307617,4292.307617,4086.666748,4202.051270,4128.717773,4074.358887,4020.512939,460.000000,4.000000,,,,0.000000,2.000000,4.000000,4.000000,4.000000,4.000000,4.000000,4.000000,4.000000,4.000000,4.000000,2.000000,4.000000,4.000000,1.000000,41.666668
1601229391.116715,5.000000,0.000000,3895.384521,4631.282227,4204.615234,4263.077148,3997.948730,4597.436035,3951.794922,3856.410156,4297.436035,4082.051270,4196.922852,4130.256348,4070.256348,4024.615479,439.000000,4.000000,,,,0.000000,2.000000,4.000000,4.000000,4.000000,4.000000,4.000000,4.000000,4.000000,4.000000,4.000000,2.000000,4.000000,4.000000,1.000000,41.666668
1601229391.124554,6.000000,0.000000,3894.358887,4627.179688,4189.743652,4261.025879,3996.410156,4591.794922,3947.692383,3856.410156,4297.436035,4079.487061,4198.461426,4126.666504,4062.564209,4026.666748,449.000000,4.000000,,,,0.000000,2.000000,4.000000,4.000000,4.000000,4.000000,4.000000,4.000000,4.000000,4.000000,4.000000,2.000000,4.000000,4.000000,1.000000,41.666668
1601229391.132494,7.000000,0.000000,3900.512939,4626.666504,4186.153809,4263.077148,3975.384521,4589.743652,3946.153809,3855.384521,4295.384766,4084.102539,4201.538574,4125.641113,4061.538574,4023.076904,353.000000,4.000000,,,,0.000000,2.000000,4.000000,4.000000,4.000000,4.000000,4.000000,4.000000,4.000000,4.000000,4.000000,2.000000,4.000000,4.000000,1.000000,41.666668
1601229391.140333,8.000000,0.000000,3902.564209,4633.333496,4194.358887,4265.128418,3980.000000,4594.871582,3949.230713,3863.076904,4300.512695,4095.384521,4202.563965,4128.205078,4071.794922,4024.102539,407.000000,4.000000,,,,0.000000,2.000000,4.000000,4.000000,4.000000,4.000000,4.000000,4.000000,4.000000,4.000000,4.000000,2.000000,4.000000,4.000000,1.000000,41.666668
1601229391.148072,9.000000,0.000000,3897.435791,4630.256348,4189.230957,4264.102539,3995.384521,4598.461426,3957.435791,3872.820557,4309.230957,4102.051270,4206.153809,4128.205078,4080.000000,4027.692383,407.000000,4.000000,,,,0.000000,2.000000,4.000000,4.000000,4.000000,4.000000,4.000000,4.000000,4.000000,4.000000,4.000000,2.000000,4.000000,4.000000,1.000000,41.666668
1601229391.155910,10.000000,0.000000,3891.794922,4614.871582,4180.512695,4261.538574,3985.128174,4589.230957,3955.384521,3869.230713,4309.743652,4099.487305,4206.666504,4122.563965,4073.333252,4021.538574,426.000000,4.000000,,,,0.000000,2.000000,4.000000,4.000000,4.000000,4.000000,4.000000,4.000000,4.000000,4.000000,4.000000,2.000000,4.000000,4.000000,1.000000,41.666668
1601229391.163649,11.000000,0.000000,3892.820557,4611.282227,4181.538574,4257.436035,3981.538574,4584.102539,3947.692383,3865.128174,4306.666504,4099.487305,4205.128418,4122.051270,4072.307617,4019.487061,45.000000,4.000000,,,,0.000000,2.000000,4.000000,4.000000,4.000000,4.000000,4.000000,4.000000,4.000000,4.000000,4.000000,2.000000,4.000000,4.000000,1.000000,41.666668
1601229391.171488,12.000000,0.000000,3900.000000,4616.922852,4186.153809,4254.358887,3998.461426,4594.871582,3956.923096,3870.256348,4312.820313,4103.589844,4211.282227,4131.794922,4087.179443,4024.615479,241.000000,4.000000,,,,0.000000,2.000000,4.000000,4.000000,4.000000,4.000000,4.000000,4.000000,4.000000,4.000000,4.000000,2.000000,4.000000,4.000000,1.000000,41.666668
1601229391.179225,13.000000,0.000000,3905.641113,4626.153809,4180.512695,4261.025879,3998.974365,4597.948730,3963.589844,3867.692383,4313.333496,4104.102539,4215.384766,4136.410156,4090.769287,4025.641113,349.000000,4.000000,,,,0.000000,2.000000,4.000000,4.000000,4.000000,4.000000,4.000000,4.000000,4.000000,4.000000,4.000000,2.000000,4.000000,4.000000,1.000000,41.666668
1601229391.187063,14.000000,0.000000,3905.128174,4635.384766,4167.692383,4268.717773,3981.025635,4592.820313,3950.256348,3860.512939,4305.641113,4106.666504,4212.307617,4135.384766,4078.461426,4025.641113,426.000000,4.000000,,,,0.000000,2.000000,4.000000,4.000000,4.000000,4.000000,4.000000,4.000000,4.000000,4.000000,4.000000,2.000000,4.000000,4.000000,1.000000,41.666668
1601229391.194799,15.000000,0.000000,3900.000000,4631.282227,4162.563965,4265.128418,3977.948730,4593.846191,3945.128174,3862.564209,4307.692383,4109.743652,4211.282227,4130.256348,4075.384521,4025.128174,45.000000,4.000000,,,,0.000000,2.000000,4.000000,4.000000,4.000000,4.000000,4.000000,4.000000,4.000000,4.000000,4.000000,2.000000,4.000000,4.000000,1.000000,41.666668
1601229391.202636,16.000000,0.000000,3892.307617,4617.436035,4155.897461,4257.436035,3985.128174,4585.128418,3944.615479,3859.487061,4302.051270,4097.436035,4205.641113,4117.436035,4069.230713,4021.538574,0.000000,4.000000,,,,0.000000,2.000000,4.000000,4.000000,4.000000,4.000000,4.000000,4.000000,4.000000,4.000000,4.000000,2.000000,4.000000,4.000000,1.000000,41.666668
1601229391.210372,17.000000,0.000000,3888.205078,4614.358887,4144.615234,4250.256348,3982.051270,4574.871582,3935.897461,3852.820557,4289.230957,4085.128174,4195.384766,4109.230957,4054.871826,4018.974365,0.000000,4.000000,,,,0.000000,2.000000,4.000000,4.000000,4.000000,4.000000,4.000000,4.000000,4.000000,4.000000,4.000000,2.000000,4.000000,4.000000,1.000000,41.666668
1601229391.218207,18.000000,0.000000,3887.692383,4616.922852,4144.102539,4245.128418,3978.461426,4583.589844,3938.461426,3856.923096,4294.871582,4089.230713,4195.384766,4113.846191,4056.410156,4018.974365,0.000000,4.000000,,,,0.000000,2.000000,4.000000,4.000000,4.000000,4.000000,4.000000,4.000000,4.000000,4.000000,4.000000,2.000000,4.000000,4.000000,1.000000,41.666668
1601229391.225943,19.000000,0.000000,3889.743652,4622.563965,4148.717773,4253.846191,3984.615479,4595.384766,3951.281982,3865.128174,4311.794922,4097.436035,4202.563965,4123.077148,4071.281982,4018.974365,0.000000,4.000000,,,,0.000000,2.000000,4.000000,4.000000,4.000000,4.000000,4.000000,4.000000,4.000000,4.000000,4.000000,2.000000,4.000000,4.000000,1.000000,41.666668
1601229391.233779,20.000000,0.000000,3895.897461,4632.307617,4148.205078,4265.128418,3987.179443,4593.846191,3948.205078,3864.615479,4310.769043,4102.051270,4203.589844,4123.077148,4075.897461,4021.538574,0.000000,4.000000,,,,0.000000,2.000000,4.000000,4.000000,4.000000,4.000000,4.000000,4.000000,4.000000,4.000000,4.000000,2.000000,4.000000,4.000000,1.000000,41.666668
1601229391.241528,21.000000,0.000000,3899.487061,4633.846191,4150.256348,4268.205078,3988.718018,4595.897461,3952.307617,3866.666748,4309.230957,4109.230957,4204.615234,4120.000000,4080.512939,4018.461426,0.000000,4.000000,,,,0.000000,2.000000,4.000000,4.000000,4.000000,4.000000,4.000000,4.000000,4.000000,4.000000,4.000000,2.000000,4.000000,4.000000,1.000000,41.666668
1601229391.249485,22.000000,0.000000,3893.846191,4627.692383,4150.256348,4259.487305,3986.666748,4597.948730,3964.615479,3868.718018,4313.846191,4109.743652,4208.717773,4124.615234,4086.153809,4017.435791,0.000000,4.000000,,,,0.000000,2.000000,4.000000,4.000000,4.000000,4.000000,4.000000,4.000000,4.000000,4.000000,4.000000,2.000000,4.000000,4.000000,1.000000,41.666668
1601229391.257342,23.000000,0.000000,3893.846191,4635.384766,4145.641113,4254.871582,3987.692383,4598.461426,3966.666748,3869.743652,4315.384766,4109.230957,4214.871582,4131.794922,4088.205078,4020.512939,0.000000,4.000000,,,,0.000000,2.000000,4.000000,4.000000,4.000000,4.000000,4.000000,4.000000,4.000000,4.000000,4.000000,2.000000,4.000000,4.000000,1.000000,41.666668
1601229391.265199,24.000000,0.000000,3897.948730,4634.358887,4143.589844,4255.897461,3991.794922,4595.384766,3954.871826,3867.692383,4310.769043,4109.230957,4216.410156,4128.205078,4082.051270,4019.487061,0.000000,4.000000,,,,0.000000,2.000000,4.000000,4.000000,4.000000,4.000000,4.000000,4.000000,4.000000,4.000000,4.000000,2.000000,4.000000,4.000000,1.000000,41.666668
1601229391.273147,25.000000,0.000000,3895.897461,4618.461426,4144.615234,4256.410156,3984.102539,4584.615234,3943.076904,3859.487061,4300.512695,4102.563965,4207.179688,4118.461426,4074.871826,4013.333252,0.000000,4.000000,,,,0.000000,2.000000,4.000000,4.000000,4.000000,4.000000,4.000000,4.000000,4.000000,4.000000,4.000000,2.000000,4.000000,4.000000,1.000000,41.666668
1601229391.281101,26.000000,0.000000,3896.410156,4621.025879,4146.153809,4256.410156,3975.384521,4579.487305,3941.025635,3853.846191,4295.897461,4098.461426,4201.538574,4119.487305,4074.871826,4011.794922,0.000000,4.000000,,,,0.000000,2.000000,4.000000,4.000000,4.000000,4.000000,4.000000,4.000000,4.000000,4.000000,4.000000,2.000000,4.000000,4.000000,1.000000,41.666668
1601229391.288956,27.000000,0.000000,3901.025635,4632.307617,4148.205078,4255.897461,3986.666748,4589.743652,3948.718018,3859.487061,4304.102539,4103.589844,4206.666504,4127.179688,4076.923096,4013.846191,0.000000,4.000000,,,,0.000000,2.000000,4.000000,4.000000,4.000000,4.000000,4.000000,4.000000,4.000000,4.000000,4.000000,2.000000,4.000000,4.000000,1.000000,41.666668
1601229391.296811,28.000000,0.000000,3900.512939,4622.563965,4147.179688,4251.794922,3992.820557,4597.948730,3953.333252,3867.692383,4314.871582,4109.743652,4210.256348,4129.230957,4076.410156,4021.025635,0.000000,4.000000,,,,0.000000,2.000000,4.000000,4.000000,4.000000,4.000000,4.000000,4.000000,4.000000,4.000000,4.000000,2.000000,4.000000,4.000000,1.000000,41.666668
1601229391.304665,29.000000,0.000000,3898.974365,4615.384766,4145.128418,4249.230957,3980.000000,4600.000000,3952.307617,3865.128174,4313.846191,4112.307617,4209.743652,4126.666504,4081.538574,4022.564209,0.000000,4.000000,,,,0.000000,2.000000,4.000000,4.000000,4.000000,4.000000,4.000000,4.000000,4.000000,4.000000,4.000000,2.000000,4.000000,4.000000,1.000000,41.666668
1601229391.312505,30.000000,0.000000,3901.025635,4624.102539,4147.692383,4255.897461,3985.641113,4601.538574,3955.897461,3860.000000,4308.205078,4115.897461,4209.743652,4126.153809,4087.692383,4013.846191,0.000000,4.000000,,,,0.000000,2.000000,4.000000,4.000000,4.000000,4.000000,4.000000,4.000000,4.000000,4.000000,4.000000,2.000000,4.000000,4.000000,1.000000,41.666668
1601229391.320344,31.000000,0.000000,3901.538574,4625.128418,4148.717773,4258.974121,3996.410156,4598.461426,3952.307617,3862.564209,4305.641113,4113.846191,4208.717773,4125.128418,4084.102539,4012.820557,0.000000,4.000000,,,,0.000000,2.000000,4.000000,4.000000,4.000000,4.000000,4.000000,4.000000,4.000000,4.000000,4.000000,2.000000,4.000000,4.000000,1.000000,41.666668
1601229391.328083,32.000000,0.000000,3898.974365,4624.102539,4144.102539,4255.384766,3984.102539,4596.922852,3943.589844,3865.641113,4310.769043,4114.358887,4208.205078,4124.102539,4082.564209,4017.948730,0.000000,4.000000,,,,0.000000,2.000000,4.000000,4.000000,4.000000,4.000000,4.000000,4.000000,4.000000,4.000000,4.000000,2.000000,4.000000,4.000000,1.000000,41.666668
1601229391.335922,33.000000,0.000000,3894.358887,4626.153809,4142.051270,4252.307617,3980.512939,4598.461426,3949.743652,3865.128174,4314.871582,4113.333496,4210.769043,4124.615234,4078.461426,4012.820557,0.000000,4.000000,,,,0.000000,2.000000,4.000000,4.000000,4.000000,4.000000,4.000000,4.000000,4.000000,4.000000,4.000000,2.000000,4.000000,4.000000,1.000000,41.666668
1601229391.343659,34.000000,0.000000,3885.641113,4619.487305,4140.000000,4246.153809,3992.307617,4589.230957,3951.794922,3860.000000,4306.153809,4104.615234,4205.641113,4120.000000,4067.179443,4011.281982,0.000000,4.000000,,,,0.000000,2.000000,4.000000,4.000000,4.000000,4.000000,4.000000,4.000000,4.000000,4.000000,4.000000,2.000000,4.000000,4.000000,1.000000,41.666668
1601229391.351497,35.000000,0.000000,3887.692383,4616.410156,4135.897461,4247.692383,3990.769287,4582.051270,3944.102539,3857.435791,4296.410156,4095.897461,4196.410156,4116.410156,4064.102539,4030.769287,0.000000,4.000000,,,,0.000000,2.000000,4.000000,4.000000,4.000000,4.000000,4.000000,4.000000,4.000000,4.000000,4.000000,2.000000,4.000000,4.000000,1.000000,41.666668
1601229391.359235,36.000000,0.000000,3900.512939,4629.230957,4141.538574,4263.077148,3985.128174,4598.974121,3957.435791,3866.666748,4305.128418,4098.461426,4195.897461,4122.563965,4071.794922,4042.051270,0.000000,4.000000,,,,0.000000,2.000000,4.000000,4.000000,4.000000,4.000000,4.000000,4.000000,4.000000,4.000000,4.000000,2.000000,4.000000,4.000000,1.000000,41.666668
1601229391.367072,37.000000,0.000000,3907.179443,4634.871582,4149.743652,4270.256348,3994.358887,4608.717773,3974.358887,3871.281982,4315.897461,4103.077148,4202.563965,4128.205078,4075.384521,4031.794922,0.000000,4.000000,,,,0.000000,2.000000,4.000000,4.000000,4.000000,4.000000,4.000000,4.000000,4.000000,4.000000,4.000000,2.000000,4.000000,4.000000,1.000000,41.666668
1601229391.374809,38.000000,0.000000,3905.641113,4626.666504,4146.666504,4261.538574,4002.051270,4597.948730,3962.564209,3865.641113,4311.794922,4101.025879,4204.615234,4125.128418,4071.281982,4016.923096,0.000000,4.000000,,,,0.000000,2.000000,4.000000,4.000000,4.000000,4.000000,4.000000,4.000000,4.000000,4.000000,4.000000,2.000000,4.000000,4.000000,1.000000,41.666668
1601229391.382646,39.000000,0.000000,3903.076904,4629.230957,4141.538574,4260.512695,3989.230713,4592.820313,3951.281982,3864.102539,4306.666504,4099.487305,4201.025879,4123.077148,4070.256348,4012.307617,0.000000,4.000000,,,,0.000000,2.000000,4.000000,4.000000,4.000000,4.000000,4.000000,4.000000,4.000000,4.000000,4.000000,2.000000,4.000000,4.000000,1.000000,41.666668
1601229391.390382,40.000000,0.000000,3907.179443,4646.153809,4145.128418,4270.256348,3982.051270,4601.025879,3967.179443,3871.794922,4312.307617,4106.153809,4206.153809,4131.282227,4082.051270,4014.871826,0.000000,4.000000,,,,0.000000,2.000000,4.000000,4.000000,4.000000,4.000000,4.000000,4.000000,4.000000,4.000000,4.000000,2.000000,4.000000,4.000000,1.000000,41.666668
1601229391.398218,41.000000,0.000000,3916.923096,4647.692383,4152.307617,4270.769043,3994.358887,4610.256348,3978.974365,3874.871826,4316.410156,4112.820313,4216.410156,4138.461426,4092.820557,4019.487061,0.000000,4.000000,,,,0.000000,2.000000,4.000000,4.000000,4.000000,4.000000,4.000000,4.000000,4.000000,4.000000,4.000000,2.000000,4.000000,4.000000,1.000000,41.666668
1601229391.405954,42.000000,0.000000,3918.461426,4634.871582,4155.897461,4269.743652,4003.589844,4614.871582,3972.307617,3873.333252,4321.025879,4114.358887,4217.436035,4136.922852,4095.897461,4017.948730,0.000000,4.000000,,,,0.000000,2.000000,4.000000,4.000000,4.000000,4.000000,4.000000,4.000000,4.000000,4.000000,4.000000,2.000000,4.000000,4.000000,1.000000,41.666668
1601229391.413790,43.000000,0.000000,3907.692383,4629.230957,4150.769043,4269.230957,3992.820557,4609.743652,3965.641113,3872.820557,4324.615234,4113.333496,4214.358887,4136.410156,4096.410156,4015.897461,0.000000,4.000000,,,,0.000000,2.000000,4.000000,4.000000,4.000000,4.000000,4.000000,4.000000,4.000000,4.000000,4.000000,2.000000,4.000000,4.000000,1.000000,41.666668
1601229391.421524,44.000000,0.000000,3905.641113,4631.282227,4147.179688,4265.641113,3983.589844,4604.615234,3969.743652,3873.333252,4322.051270,4111.794922,4216.410156,4139.487305,4097.436035,4018.974365,0.000000,4.000000,,,,0.000000,2.000000,4.000000,4.000000,4.000000,4.000000,4.000000,4.000000,4.000000,4.000000,4.000000,2.000000,4.000000,4.000000,1.000000,41.666668
1601229391.429466,45.000000,0.000000,3912.307617,4629.743652,4147.179688,4262.563965,3992.307617,4606.666504,3968.205078,3874.871826,4319.487305,4108.205078,4215.384766,4137.436035,4090.256348,4023.076904,0.000000,4.000000,,,,0.000000,2.000000,4.000000,4.000000,4.000000,4.000000,4.000000,4.000000,4.000000,4.000000,4.000000,2.000000,4.000000,4.000000,1.000000,41.666668
1601229391.437307,46.000000,0.000000,3909.743652,4627.692383,4144.102539,4256.922852,3996.410156,4603.589844,3955.897461,3871.794922,4314.871582,4100.000000,4205.641113,4128.717773,4075.384521,4020.000000,0.000000,4.000000,,,,0.000000,2.000000,4.000000,4.000000,4.000000,4.000000,4.000000,4.000000,4.000000,4.000000,4.000000,2.000000,4.000000,4.000000,1.000000,41.666668
1601229391.445149,47.000000,0.000000,3902.564209,4630.256348,4140.512695,4252.820313,3990.256348,4601.538574,3958.974365,3867.179443,4308.205078,4094.358887,4200.512695,4123.077148,4067.179443,4012.307617,0.000000,4.000000,,,,0.000000,2.000000,4.000000,4.000000,4.000000,4.000000,4.000000,4.000000,4.000000,4.000000,4.000000,2.000000,4.000000,4.000000,1.000000,41.666668
1601229391.452883,48.000000,0.000000,3899.487061,4628.205078,4140.512695,4255.384766,3990.769287,4607.692383,3971.794922,3870.256348,4309.230957,4095.897461,4200.000000,4125.128418,4069.743652,4007.179443,0.000000,4.000000,,,,0.000000,2.000000,4.000000,4.000000,4.000000,4.000000,4.000000,4.000000,4.000000,4.000000,4.000000,2.000000,4.000000,4.000000,1.000000,41.666668
1601229391.460717,49.000000,0.000000,3898.461426,4624.102539,4142.051270,4261.538574,3999.487061,4610.256348,3968.718018,3877.948730,4318.461426,4103.077148,4203.077148,4129.230957,4073.333252,4011.281982,0.000000,4.000000,,,,0.000000,2.000000,4.000000,4.000000,4.000000,4.000000,4.000000,4.000000,4.000000,4.000000,4.000000,2.000000,4.000000,4.000000,1.000000,41.666668
1601229391.468449,50.000000,0.000000,3902.051270,4630.256348,4145.128418,4261.025879,4000.000000,4607.179688,3959.487061,3879.487061,4322.051270,4106.666504,4208.205078,4129.230957,4076.410156,4017.948730,0.000000,4.000000,,,,0.000000,2.000000,4.000000,4.000000,4.000000,4.000000,4.000000,4.000000,4.000000,4.000000,4.000000,2.000000,4.000000,4.000000,1.000000,41.666668
1601229391.476389,51.000000,0.000000,3902.564209,4635.384766,4142.563965,4257.948730,3992.307617,4605.641113,3957.948730,3873.846191,4317.948730,4103.589844,4210.769043,4128.205078,4081.025635,4014.358887,0.000000,4.000000,,,,0.000000,2.000000,4.000000,4.000000,4.000000,4.000000,4.000000,4.000000,4.000000,4.000000,4.000000,2.000000,4.000000,4.000000,1.000000,41.666668
1601229391.484228,52.000000,0.000000,3894.358887,4623.077148,4131.282227,4249.743652,3984.102539,4591.282227,3950.256348,3866.666748,4306.153809,4094.871826,4207.692383,4122.563965,4075.384521,4009.230713,0.000000,4.000000,,,,0.000000,2.000000,4.000000,4.000000,4.000000,4.000000,4.000000,4.000000,4.000000,4.000000,4.000000,2.000000,4.000000,4.000000,1.000000,41.666668
1601229391.492167,53.000000,0.000000,3895.384521,4618.461426,4129.230957,4247.692383,3988.718018,4584.615234,3947.179443,3866.666748,4302.051270,4095.384521,4206.153809,4116.410156,4073.333252,4009.230713,0.000000,4.000000,,,,0.000000,2.000000,4.000000,4.000000,4.000000,4.000000,4.000000,4.000000,4.000000,4.000000,4.000000,2.000000,4.000000,4.000000,1.000000,41.666668
1601229391.500006,54.000000,0.000000,3906.153809,4631.282227,4139.487305,4261.025879,3998.974365,4603.589844,3960.000000,3869.230713,4315.897461,4102.051270,4211.794922,4125.128418,4087.179443,4014.358887,0.000000,4.000000,,,,0.000000,2.000000,4.000000,4.000000,4.000000,4.000000,4.000000,4.000000,4.000000,4.000000,4.000000,2.000000,4.000000,4.000000,1.000000,41.666668
1601229391.507844,55.000000,0.000000,3906.666748,4634.871582,4144.102539,4269.230957,3995.384521,4622.051270,3971.281982,3869.230713,4331.794922,4107.692383,4216.410156,4134.871582,4094.358887,4013.846191,0.000000,4.000000,,,,0.000000,2.000000,4.000000,4.000000,4.000000,4.000000,4.000000,4.000000,4.000000,4.000000,4.000000,2.000000,4.000000,4.000000,1.000000,41.666668
1601229391.515683,56.000000,0.000000,3898.974365,4622.051270,4142.051270,4256.410156,3987.179443,4616.922852,3967.692383,3870.256348,4328.205078,4110.256348,4211.794922,4130.256348,4082.564209,4012.820557,0.000000,4.000000,,,,0.000000,2.000000,4.000000,4.000000,4.000000,4.000000,4.000000,4.000000,4.000000,4.000000,4.000000,2.000000,4.000000,4.000000,1.000000,41.666668
1601229391.523420,57.000000,0.000000,3900.512939,4621.025879,4142.051270,4251.794922,3996.923096,4603.077148,3959.487061,3873.333252,4321.025879,4110.769043,4209.743652,4127.179688,4079.487061,4011.794922,0.000000,4.000000,,,,0.000000,2.000000,4.000000,4.000000,4.000000,4.000000,4.000000,4.000000,4.000000,4.000000,4.000000,2.000000,4.000000,4.000000,1.000000,41.666668
1601229391.531257,58.000000,0.000000,3904.102539,4632.307617,4139.487305,4262.051270,4000.512939,4596.410156,3954.871826,3872.307617,4322.563965,4106.666504,4215.384766,4127.692383,4087.179443,4014.358887,0.000000,4.000000,,,,0.000000,2.000000,4.000000,4.000000,4.000000,4.000000,4.000000,4.000000,4.000000,4.000000,4.000000,2.000000,4.000000,4.000000,1.000000,41.666668
1601229391.538994,59.000000,0.000000,3897.948730,4630.256348,4133.333496,4259.487305,3990.769287,4598.974121,3956.410156,3868.718018,4317.436035,4100.000000,4211.794922,4121.025879,4084.102539,4010.256348,0.000000,4.000000,,,,0.000000,2.000000,4.000000,4.000000,4.000000,4.000000,4.000000,4.000000,4.000000,4.000000,4.000000,2.000000,4.000000,4.000000,1.000000,41.666668
1601229391.546830,60.000000,0.000000,3887.692383,4610.256348,4125.641113,4242.563965,3987.692383,4604.102539,3959.487061,3864.615479,4302.563965,4088.718018,4198.974121,4112.820313,4067.692383,4000.000000,0.000000,4.000000,,,,0.000000,2.000000,4.000000,4.000000,4.000000,4.000000,4.000000,4.000000,4.000000,4.000000,4.000000,2.000000,4.000000,4.000000,1.000000,41.666668
1601229391.554567,61.000000,0.000000,3882.564209,4599.487305,4119.487305,4240.512695,3986.666748,4605.128418,3966.153809,3863.589844,4299.487305,4078.461426,4191.794922,4106.666504,4053.846191,3998.974365,0.000000,4.000000,,,,0.000000,2.000000,4.000000,4.000000,4.000000,4.000000,4.000000,4.000000,4.000000,4.000000,4.000000,2.000000,4.000000,4.000000,1.000000,41.666668
1601229391.562403,62.000000,0.000000,3881.538574,4604.102539,4120.000000,4254.358887,3978.461426,4605.128418,3969.230713,3870.769287,4311.282227,4079.487061,4190.256348,4103.077148,4048.205078,4004.615479,0.000000,4.000000,,,,0.000000,2.000000,4.000000,4.000000,4.000000,4.000000,4.000000,4.000000,4.000000,4.000000,4.000000,2.000000,4.000000,4.000000,1.000000,41.666668
1601229391.570139,63.000000,0.000000,3885.641113,4612.820313,4128.717773,4267.692383,3984.615479,4609.743652,3961.538574,3878.974365,4320.512695,4088.205078,4197.436035,4113.846191,4061.025635,4003.589844,0.000000,4.000000,,,,0.000000,2.000000,4.000000,4.000000,4.000000,4.000000,4.000000,4.000000,4.000000,4.000000,4.000000,2.000000,4.000000,4.000000,1.000000,41.666668
1601229391.577975,64.000000,0.000000,3896.410156,4624.615234,4135.897461,4278.974121,4004.615479,4614.358887,3964.102539,3880.000000,4326.666504,4098.974121,4213.333496,4130.256348,4078.974365,4003.589844,378.000000,4.000000,,,,0.000000,2.000000,4.000000,4.000000,4.000000,4.000000,4.000000,4.000000,4.000000,4.000000,4.000000,2.000000,4.000000,4.000000,1.000000,41.666668
1601229391.585710,65.000000,0.000000,3901.538574,4633.333496,4133.846191,4280.512695,3997.435791,4610.256348,3971.794922,3877.948730,4332.307617,4107.692383,4220.000000,4132.820313,4074.871826,4013.846191,435.000000,4.000000,,,,0.000000,2.000000,4.000000,4.000000,4.000000,4.000000,4.000000,4.000000,4.000000,4.000000,4.000000,2.000000,4.000000,4.000000,1.000000,41.666668
1601229391.593545,66.000000,0.000000,3897.435791,4631.794922,4129.743652,4276.410156,3982.051270,4603.589844,3967.179443,3880.000000,4335.897461,4110.769043,4218.461426,4128.717773,4073.333252,4014.358887,384.000000,4.000000,,,,0.000000,2.000000,4.000000,4.000000,4.000000,4.000000,4.000000,4.000000,4.000000,4.000000,4.000000,2.000000,4.000000,4.000000,1.000000,41.666668
1601229391.601280,67.000000,0.000000,3897.435791,4623.077148,4135.897461,4276.922852,3985.128174,4601.538574,3964.615479,3876.923096,4331.282227,4105.128418,4218.974121,4131.794922,4086.153809,4007.179443,435.000000,4.000000,,,,0.000000,2.000000,4.000000,4.000000,4.000000,4.000000,4.000000,4.000000,4.000000,4.000000,4.000000,2.000000,4.000000,4.000000,1.000000,41.666668
1601229391.609114,68.000000,0.000000,3902.564209,4622.563965,4143.077148,4276.410156,3988.205078,4601.538574,3969.230713,3870.256348,4321.025879,4103.077148,4220.000000,4135.384766,4092.307617,4007.179443,459.000000,4.000000,,,,0.000000,2.000000,4.000000,4.000000,4.000000,4.000000,4.000000,4.000000,4.000000,4.000000,4.000000,2.000000,4.000000,4.000000,1.000000,41.666668
1601229391.616849,69.000000,0.000000,3902.564209,4629.230957,4140.512695,4270.256348,3981.025635,4599.487305,3961.538574,3869.743652,4321.025879,4106.153809,4220.512695,4131.794922,4090.256348,4012.820557,438.000000,4.000000,,,,0.000000,2.000000,4.000000,4.000000,4.000000,4.000000,4.000000,4.000000,4.000000,4.000000,4.000000,2.000000,4.000000,4.000000,1.000000,41.666668
1601229391.624682,70.000000,0.000000,3901.025635,4628.205078,4136.410156,4275.384766,3982.051270,4603.589844,3959.487061,3876.923096,4332.307617,4110.256348,4222.563965,4131.794922,4093.333252,4013.333252,446.000000,4.000000,,,,0.000000,2.000000,4.000000,4.000000,4.000000,4.000000,4.000000,4.000000,4.000000,4.000000,4.000000,2.000000,4.000000,4.000000,1.000000,41.666668
1601229391.632416,71.000000,0.000000,3903.589844,4624.615234,4140.000000,4283.589844,3989.743652,4611.282227,3969.230713,3876.923096,4332.820313,4112.307617,4226.666504,4138.974121,4093.846191,4014.871826,353.000000,4.000000,,,,0.000000,2.000000,4.000000,4.000000,4.000000,4.000000,4.000000,4.000000,4.000000,4.000000,4.000000,2.000000,4.000000,4.000000,1.000000,41.666668
1601229391.640250,72.000000,0.000000,3907.179443,4635.384766,4143.077148,4282.563965,3992.307617,4615.384766,3970.769287,3874.358887,4326.153809,4115.897461,4230.256348,4141.538574,4092.820557,4013.846191,408.000000,4.000000,,,,0.000000,2.000000,4.000000,4.000000,4.000000,4.000000,4.000000,4.000000,4.000000,4.000000,4.000000,2.000000,4.000000,4.000000,1.000000,41.666668
1601229391.647982,73.000000,0.000000,3902.564209,4635.897461,4135.384766,4277.436035,3989.230713,4602.563965,3960.000000,3870.769287,4320.000000,4107.692383,4224.615234,4129.743652,4086.666748,4010.256348,406.000000,4.000000,,,,0.000000,2.000000,4.000000,4.000000,4.000000,4.000000,4.000000,4.000000,4.000000,4.000000,4.000000,2.000000,4.000000,4.000000,1.000000,41.666668
1601229391.655921,74.000000,0.000000,3896.923096,4623.589844,4129.230957,4281.025879,3984.615479,4590.769043,3957.948730,3867.179443,4317.436035,4092.307617,4215.897461,4124.615234,4081.538574,4005.641113,425.000000,4.000000,,,,0.000000,2.000000,4.000000,4.000000,4.000000,4.000000,4.000000,4.000000,4.000000,4.000000,4.000000,2.000000,4.000000,4.000000,1.000000,41.666668
1601229391.663760,75.000000,0.000000,3897.435791,4632.820313,4131.794922,4285.128418,3982.564209,4598.974121,3962.564209,3871.281982,4322.051270,4093.333252,4215.897461,4136.410156,4090.256348,4006.153809,47.000000,4.000000,,,,0.000000,2.000000,4.000000,4.000000,4.000000,4.000000,4.000000,4.000000,4.000000,4.000000,4.000000,2.000000,4.000000,4.000000,1.000000,41.666668
1601229391.671699,76.000000,0.000000,3902.051270,4641.025879,4138.974121,4283.077148,3989.743652,4609.743652,3965.128174,3877.435791,4326.666504,4101.025879,4220.512695,4141.538574,4090.769287,4006.666748,241.000000,4.000000,,,,0.000000,2.000000,4.000000,4.000000,4.000000,4.000000,4.000000,4.000000,4.000000,4.000000,4.000000,2.000000,4.000000,4.000000,1.000000,41.666668
1601229391.679537,77.000000,0.000000,3906.153809,4623.077148,4140.512695,4279.487305,3996.923096,4607.179688,3967.179443,3877.435791,4325.128418,4100.512695,4218.974121,4137.948730,4077.435791,4007.692383,349.000000,4.000000,,,,0.000000,2.000000,4.000000,4.000000,4.000000,4.000000,4.000000,4.000000,4.000000,4.000000,4.000000,2.000000,4.000000,4.000000,1.000000,41.666668
1601229391.687475,78.000000,0.000000,3905.641113,4621.538574,4140.000000,4282.051270,3992.820557,4608.205078,3968.205078,3878.461426,4325.641113,4099.487305,4217.948730,4142.051270,4078.974365,4008.718018,425.000000,4.000000,,,,0.000000,2.000000,4.000000,4.000000,4.000000,4.000000,4.000000,4.000000,4.000000,4.000000,4.000000,2.000000,4.000000,4.000000,1.000000,41.666668
1601229391.695314,79.000000,0.000000,3900.512939,4644.102539,4143.589844,4286.153809,3988.205078,4612.820313,3967.692383,3879.487061,4327.692383,4101.025879,4222.051270,4143.589844,4090.769287,4006.153809,47.000000,4.000000,,,,0.000000,2.000000,4.000000,4.000000,4.000000,4.000000,4.000000,4.000000,4.000000,4.000000,4.000000,2.000000,4.000000,4.000000,1.000000,41.666668
1601229391.703051,80.000000,0.000000,3895.384521,4642.051270,4140.512695,4277.948730,3990.256348,4606.153809,3965.641113,3873.333252,4320.512695,4092.820557,4217.436035,4132.307617,4083.589844,4003.076904,241.000000,4.000000,,,,0.000000,2.000000,4.000000,4.000000,4.000000,4.000000,4.000000,4.000000,4.000000,4.000000,4.000000,2.000000,4.000000,4.000000,1.000000,41.666668
1601229391.710888,81.000000,0.000000,3893.333252,4621.025879,4133.333496,4271.794922,3985.128174,4598.974121,3963.076904,3867.692383,4314.871582,4087.179443,4212.307617,4125.641113,4071.794922,4004.615479,349.000000,4.000000,,,,0.000000,2.000000,4.000000,4.000000,4.000000,4.000000,4.000000,4.000000,4.000000,4.000000,4.000000,2.000000,4.000000,4.000000,1.000000,41.666668
1601229391.718625,82.000000,0.000000,3891.281982,4615.384766,4131.282227,4271.794922,3968.718018,4596.922852,3955.384521,3868.205078,4316.410156,4086.666748,4214.358887,4128.717773,4075.384521,4006.666748,425.000000,4.000000,,,,0.000000,2.000000,4.000000,4.000000,4.000000,4.000000,4.000000,4.000000,4.000000,4.000000,4.000000,2.000000,4.000000,4.000000,1.000000,41.666668
1601229391.726461,83.000000,0.000000,3887.692383,4615.384766,4129.230957,4271.794922,3965.641113,4593.846191,3948.205078,3870.769287,4317.948730,4085.128174,4212.820313,4125.128418,4080.512939,4002.564209,47.000000,4.000000,,,,0.000000,2.000000,4.000000,4.000000,4.000000,4.000000,4.000000,4.000000,4.000000,4.000000,4.000000,2.000000,4.000000,4.000000,1.000000,41.666668
1601229391.734198,84.000000,0.000000,3884.102539,4606.153809,4121.025879,4271.794922,3970.769287,4586.666504,3942.051270,3865.128174,4308.717773,4075.897461,4206.153809,4119.487305,4073.333252,4005.128174,241.000000,4.000000,,,,0.000000,2.000000,4.000000,4.000000,4.000000,4.000000,4.000000,4.000000,4.000000,4.000000,4.000000,2.000000,4.000000,4.000000,1.000000,41.666668
1601229391.742034,85.000000,0.000000,3887.179443,4609.230957,4124.615234,4278.461426,3977.435791,4586.153809,3947.179443,3861.025635,4302.051270,4071.281982,4208.205078,4123.077148,4072.307617,4012.307617,349.000000,4.000000,,,,0.000000,2.000000,4.000000,4.000000,4.000000,4.000000,4.000000,4.000000,4.000000,4.000000,4.000000,2.000000,4.000000,4.000000,1.000000,41.666668
1601229391.749769,86.000000,0.000000,3893.333252,4625.128418,4136.410156,4285.128418,3980.512939,4590.769043,3956.923096,3863.076904,4305.128418,4069.743652,4211.794922,4123.077148,4075.897461,4012.307617,425.000000,4.000000,,,,0.000000,2.000000,4.000000,4.000000,4.000000,4.000000,4.000000,4.000000,4.000000,4.000000,4.000000,2.000000,4.000000,4.000000,1.000000,41.666668
1601229391.757605,87.000000,0.000000,3887.692383,4627.692383,4129.743652,4284.102539,3972.820557,4591.282227,3951.794922,3857.435791,4304.615234,4061.538574,4201.025879,4108.717773,4069.230713,4007.179443,47.000000,4.000000,,,,0.000000,2.000000,4.000000,4.000000,4.000000,4.000000,4.000000,4.000000,4.000000,4.000000,4.000000,2.000000,4.000000,4.000000,1.000000,41.666668
1601229391.765339,88.000000,0.000000,3879.487061,4610.256348,4117.436035,4280.512695,3972.820557,4591.282227,3944.102539,3853.333252,4300.000000,4056.410156,4195.897461,4105.128418,4062.564209,4011.281982,241.000000,4.000000,,,,0.000000,2.000000,4.000000,4.000000,4.000000,4.000000,4.000000,4.000000,4.000000,4.000000,4.000000,2.000000,4.000000,4.000000,1.000000,41.666668
1601229391.773174,89.000000,0.000000,3886.666748,4609.230957,4124.102539,4283.077148,3985.641113,4598.461426,3952.820557,3859.487061,4304.615234,4069.230713,4208.205078,4116.922852,4071.281982,4017.435791,349.000000,4.000000,,,,0.000000,2.000000,4.000000,4.000000,4.000000,4.000000,4.000000,4.000000,4.000000,4.000000,4.000000,2.000000,4.000000,4.000000,1.000000,41.666668
1601229391.780908,90.000000,0.000000,3894.871826,4632.820313,4135.897461,4289.743652,3984.102539,4601.025879,3957.435791,3860.512939,4307.179688,4077.948730,4212.307617,4118.974121,4079.487061,4018.461426,425.000000,4.000000,,,,0.000000,2.000000,4.000000,4.000000,4.000000,4.000000,4.000000,4.000000,4.000000,4.000000,4.000000,2.000000,4.000000,4.000000,1.000000,41.666668
1601229391.788743,91.000000,0.000000,3892.307617,4644.102539,4136.410156,4292.307617,3977.948730,4595.384766,3947.179443,3861.025635,4304.615234,4070.769287,4202.563965,4112.307617,4074.871826,4015.897461,47.000000,4.000000,,,,0.000000,2.000000,4.000000,4.000000,4.000000,4.000000,4.000000,4.000000,4.000000,4.000000,4.000000,2.000000,4.000000,4.000000,1.000000,41.666668
1601229391.796477,92.000000,0.000000,3887.179443,4629.743652,4131.282227,4286.666504,3982.051270,4592.820313,3943.589844,3863.076904,4304.615234,4065.641113,4198.974121,4109.743652,4069.743652,4018.974365,241.000000,4.000000,,,,0.000000,2.000000,4.000000,4.000000,4.000000,4.000000,4.000000,4.000000,4.000000,4.000000,4.000000,2.000000,4.000000,4.000000,1.000000,41.666668
1601229391.804311,93.000000,0.000000,3887.179443,4621.025879,4129.743652,4284.102539,3985.641113,4596.922852,3955.897461,3862.564209,4304.102539,4070.256348,4205.128418,4113.846191,4077.948730,4018.461426,349.000000,4.000000,,,,0.000000,2.000000,4.000000,4.000000,4.000000,4.000000,4.000000,4.000000,4.000000,4.000000,4.000000,2.000000,4.000000,4.000000,1.000000,41.666668
1601229391.812044,94.000000,0.000000,3892.307617,4628.205078,4132.307617,4287.692383,3991.281982,4603.077148,3966.666748,3866.153809,4308.205078,4077.948730,4208.717773,4117.948730,4087.692383,4015.897461,425.000000,4.000000,,,,0.000000,2.000000,4.000000,4.000000,4.000000,4.000000,4.000000,4.000000,4.000000,4.000000,4.000000,2.000000,4.000000,4.000000,1.000000,41.666668
1601229391.819878,95.000000,0.000000,3895.384521,4628.205078,4134.358887,4283.077148,3993.846191,4603.077148,3960.512939,3870.256348,4311.282227,4079.487061,4209.230957,4118.974121,4076.923096,4016.410156,47.000000,4.000000,,,,0.000000,2.000000,4.000000,4.000000,4.000000,4.000000,4.000000,4.000000,4.000000,4.000000,4.000000,2.000000,4.000000,4.000000,1.000000,41.666668
1601229391.827610,96.000000,0.000000,3893.333252,4623.589844,4130.769043,4277.436035,3981.538574,4595.897461,3950.769287,3865.128174,4307.179688,4075.384521,4209.230957,4119.487305,4067.179443,4016.923096,241.000000,4.000000,,,,0.000000,2.000000,4.000000,4.000000,4.000000,4.000000,4.000000,4.000000,4.000000,4.000000,4.000000,2.000000,4.000000,4.000000,1.000000,41.666668
1601229391.835549,97.000000,0.000000,3896.410156,4622.051270,4129.743652,4281.025879,3972.820557,4587.692383,3946.666748,3858.974365,4302.051270,4070.769287,4206.666504,4117.948730,4075.897461,4016.410156,349.000000,4.000000,,,,0.000000,2.000000,4.000000,4.000000,4.000000,4.000000,4.000000,4.000000,4.000000,4.000000,4.000000,2.000000,4.000000,4.000000,1.000000,41.666668
1601229391.843388,98.000000,0.000000,3900.000000,4626.666504,4134.358887,4285.641113,3980.512939,4586.153809,3950.769287,3864.102539,4305.128418,4075.897461,4206.666504,4118.974121,4087.692383,4017.435791,425.000000,4.000000,,,,0.000000,2.000000,4.000000,4.000000,4.000000,4.000000,4.000000,4.000000,4.000000,4.000000,4.000000,2.000000,4.000000,4.000000,1.000000,41.666668
1601229391.851326,99.000000,0.000000,3894.871826,4635.384766,4134.358887,4286.153809,3986.666748,4591.794922,3961.025635,3870.256348,4311.282227,4080.000000,4208.205078,4124.102539,4086.666748,4020.512939,47.000000,4.000000,,,,0.000000,2.000000,4.000000,4.000000,4.000000,4.000000,4.000000,4.000000,4.000000,4.000000,4.000000,2.000000,4.000000,4.000000,1.000000,41.666668
1601229391.859165,100.000000,0.000000,3887.179443,4634.871582,4130.256348,4285.128418,3988.205078,4595.384766,3963.076904,3871.794922,4316.410156,4078.974365,4208.205078,4123.077148,4080.000000,4017.948730,241.000000,4.000000,,,,0.000000,2.000000,4.000000,4.000000,4.000000,4.000000,4.000000,4.000000,4.000000,4.000000,4.000000,2.000000,4.000000,4.000000,1.000000,41.666668
1601229391.867102,101.000000,0.000000,3891.794922,4628.717773,4131.794922,4284.615234,3987.179443,4591.794922,3951.794922,3866.666748,4315.384766,4077.948730,4205.641113,4117.436035,4074.871826,4014.871826,349.000000,4.000000,,,,0.000000,2.000000,4.000000,4.000000,4.000000,4.000000,4.000000,4.000000,4.000000,4.000000,4.000000,2.000000,4.000000,4.000000,1.000000,41.666668
1601229391.874939,102.000000,0.000000,3902.051270,4636.922852,4141.538574,4290.769043,3993.333252,4598.974121,3957.435791,3868.205078,4317.948730,4084.102539,4209.230957,4123.589844,4078.974365,4017.948730,425.000000,4.000000,,,,0.000000,2.000000,4.000000,4.000000,4.000000,4.000000,4.000000,4.000000,4.000000,4.000000,4.000000,2.000000,4.000000,4.000000,1.000000,41.666668
1601229391.882677,103.000000,0.000000,3907.692383,4645.128418,4146.666504,4289.743652,4001.538574,4608.717773,3972.820557,3876.923096,4323.589844,4086.153809,4214.358887,4130.256348,4082.564209,4032.307617,47.000000,4.000000,,,,0.000000,2.000000,4.000000,4.000000,4.000000,4.000000,4.000000,4.000000,4.000000,4.000000,4.000000,2.000000,4.000000,4.000000,1.000000,41.666668
1601229391.890515,104.000000,0.000000,3904.615479,4642.051270,4142.563965,4286.153809,3994.871826,4603.077148,3962.051270,3872.820557,4319.487305,4078.461426,4211.282227,4125.128418,4080.000000,4044.102539,241.000000,4.000000,,,,0.000000,2.000000,4.000000,4.000000,4.000000,4.000000,4.000000,4.000000,4.000000,4.000000,4.000000,2.000000,4.000000,4.000000,1.000000,41.666668
1601229391.898252,105.000000,0.000000,3900.512939,4634.871582,4141.025879,4291.794922,3982.051270,4592.307617,3944.615479,3861.025635,4308.205078,4069.743652,4206.666504,4123.077148,4078.974365,4044.102539,349.000000,4.000000,,,,0.000000,2.000000,4.000000,4.000000,4.000000,4.000000,4.000000,4.000000,4.000000,4.000000,4.000000,2.000000,4.000000,4.000000,1.000000,41.666668
1601229391.906088,106.000000,0.000000,3900.000000,4630.769043,4143.589844,4293.333496,3985.128174,4591.794922,3950.769287,3858.461426,4304.102539,4066.153809,4205.128418,4125.128418,4082.051270,4029.743652,425.000000,4.000000,,,,0.000000,2.000000,4.000000,4.000000,4.000000,4.000000,4.000000,4.000000,4.000000,4.000000,4.000000,2.000000,4.000000,4.000000,1.000000,41.666668
1601229391.913824,107.000000,0.000000,3898.974365,4633.333496,4140.000000,4283.589844,3991.281982,4590.256348,3957.948730,3860.000000,4304.615234,4061.538574,4204.615234,4124.102539,4074.871826,4015.384521,47.000000,4.000000,,,,0.000000,2.000000,4.000000,4.000000,4.000000,4.000000,4.000000,4.000000,4.000000,4.000000,4.000000,2.000000,4.000000,4.000000,1.000000,41.666668
1601229391.921660,108.000000,0.000000,3898.974365,4640.512695,4136.410156,4281.538574,3988.718018,4590.769043,3957.435791,3862.051270,4306.666504,4064.102539,4207.179688,4123.589844,4071.281982,4010.769287,241.000000,4.000000,,,,0.000000,2.000000,4.000000,4.000000,4.000000,4.000000,4.000000,4.000000,4.000000,4.000000,4.000000,2.000000,4.000000,4.000000,1.000000,41.666668
1601229391.929396,109.000000,0.000000,3901.025635,4643.077148,4137.948730,4286.666504,3987.692383,4592.820313,3955.384521,3868.718018,4311.794922,4075.384521,4214.871582,4125.128418,4088.205078,4015.897461,349.000000,4.000000,,,,0.000000,2.000000,4.000000,4.000000,4.000000,4.000000,4.000000,4.000000,4.000000,4.000000,4.000000,2.000000,4.000000,4.000000,1.000000,41.666668
1601229391.937231,110.000000,0.000000,3904.102539,4640.000000,4140.512695,4287.692383,3987.692383,4591.794922,3956.410156,3872.307617,4316.410156,4078.461426,4217.948730,4130.769043,4096.410156,4019.487061,425.000000,4.000000,,,,0.000000,2.000000,4.000000,4.000000,4.000000,4.000000,4.000000,4.000000,4.000000,4.000000,4.000000,2.000000,4.000000,4.000000,1.000000,41.666668
1601229391.944966,111.000000,0.000000,3905.128174,4634.358887,4142.563965,4285.641113,3995.384521,4597.436035,3965.641113,3872.820557,4317.948730,4072.307617,4213.333496,4134.871582,4083.589844,4016.923096,47.000000,4.000000,,,,0.000000,2.000000,4.000000,4.000000,4.000000,4.000000,4.000000,4.000000,4.000000,4.000000,4.000000,2.000000,4.000000,4.000000,1.000000,41.666668
1601229391.952801,112.000000,0.000000,3906.666748,4637.436035,4146.666504,4285.641113,4011.281982,4605.128418,3970.769287,3877.948730,4320.512695,4074.871826,4210.256348,4134.358887,4076.410156,4012.820557,241.000000,4.000000,,,,0.000000,2.000000,4.000000,4.000000,4.000000,4.000000,4.000000,4.000000,4.000000,4.000000,4.000000,2.000000,4.000000,4.000000,1.000000,41.666668
1601229391.960534,113.000000,0.000000,3907.692383,4650.769043,4150.256348,4294.871582,4010.769287,4603.589844,3962.051270,3880.512939,4324.615234,4082.051270,4211.282227,4132.307617,4082.051270,4013.846191,349.000000,4.000000,,,,0.000000,2.000000,4.000000,4.000000,4.000000,4.000000,4.000000,4.000000,4.000000,4.000000,4.000000,2.000000,4.000000,4.000000,1.000000,41.666668
1601229391.968368,114.000000,0.000000,3904.102539,4646.153809,4147.179688,4298.974121,3992.820557,4591.794922,3953.846191,3867.692383,4313.846191,4071.794922,4210.256348,4129.230957,4077.435791,4015.897461,425.000000,4.000000,,,,0.000000,2.000000,4.000000,4.000000,4.000000,4.000000,4.000000,4.000000,4.000000,4.000000,4.000000,2.000000,4.000000,4.000000,1.000000,41.666668
1601229391.976102,115.000000,0.000000,3897.948730,4633.333496,4138.461426,4291.282227,3984.615479,4591.794922,3961.025635,3862.051270,4305.641113,4058.974365,4207.179688,4125.128418,4068.718018,4009.743652,47.000000,4.000000,,,,0.000000,2.000000,4.000000,4.000000,4.000000,4.000000,4.000000,4.000000,4.000000,4.000000,4.000000,2.000000,4.000000,4.000000,1.000000,41.666668
1601229391.983935,116.000000,0.000000,3896.923096,4638.461426,4136.410156,4284.102539,3990.769287,4599.487305,3961.538574,3870.769287,4314.871582,4063.589844,4207.692383,4126.666504,4071.281982,4008.205078,241.000000,4.000000,,,,0.000000,2.000000,4.000000,4.000000,4.000000,4.000000,4.000000,4.000000,4.000000,4.000000,4.000000,2.000000,4.000000,4.000000,1.000000,41.666668
1601229391.991668,117.000000,0.000000,3900.512939,4641.538574,4138.974121,4288.205078,4002.564209,4594.358887,3947.692383,3871.281982,4314.871582,4070.769287,4211.794922,4129.230957,4074.871826,4010.256348,349.000000,4.000000,,,,0.000000,2.000000,4.000000,4.000000,4.000000,4.000000,4.000000,4.000000,4.000000,4.000000,4.000000,2.000000,4.000000,4.000000,1.000000,41.666668
1601229391.999501,118.000000,0.000000,3901.025635,4630.256348,4137.948730,4290.256348,4002.564209,4582.563965,3945.641113,3864.102539,4300.512695,4065.128174,4212.307617,4127.179688,4070.769287,4009.743652,425.000000,4.000000,,,,0.000000,2.000000,4.000000,4.000000,4.000000,4.000000,4.000000,4.000000,4.000000,4.000000,4.000000,2.000000,4.000000,4.000000,1.000000,41.666668
1601229392.007233,119.000000,0.000000,3895.897461,4631.794922,4137.948730,4283.077148,3991.794922,4591.794922,3962.051270,3869.230713,4308.717773,4065.641113,4211.794922,4127.179688,4073.846191,4007.179443,47.000000,4.000000,,,,0.000000,2.000000,4.000000,4.000000,4.000000,4.000000,4.000000,4.000000,4.000000,4.000000,4.000000,2.000000,4.000000,4.000000,1.000000,41.666668
1601229392.015172,120.000000,0.000000,3894.871826,4633.846191,4142.051270,4277.436035,3992.307617,4604.102539,3966.666748,3876.410156,4324.615234,4073.846191,4214.871582,4130.769043,4081.025635,4010.256348,241.000000,4.000000,,,,0.000000,2.000000,4.000000,4.000000,4.000000,4.000000,4.000000,4.000000,4.000000,4.000000,4.000000,2.000000,4.000000,4.000000,1.000000,41.666668
1601229392.023011,121.000000,0.000000,3898.461426,4623.589844,4143.077148,4283.589844,4005.641113,4602.051270,3960.512939,3878.974365,4323.589844,4078.974365,4215.897461,4130.769043,4080.000000,4009.743652,349.000000,4.000000,,,,0.000000,2.000000,4.000000,4.000000,4.000000,4.000000,4.000000,4.000000,4.000000,4.000000,4.000000,2.000000,4.000000,4.000000,1.000000,41.666668
1601229392.030950,122.000000,0.000000,3895.384521,4619.487305,4137.948730,4287.692383,4007.692383,4603.589844,3967.179443,3883.589844,4326.153809,4079.487061,4211.282227,4129.230957,4081.538574,4010.256348,425.000000,4.000000,,,,0.000000,2.000000,4.000000,4.000000,4.000000,4.000000,4.000000,4.000000,4.000000,4.000000,4.000000,2.000000,4.000000,4.000000,1.000000,41.666668
1601229392.038788,123.000000,0.000000,3886.666748,4627.692383,4130.769043,4279.487305,3997.435791,4603.589844,3969.743652,3880.512939,4326.666504,4074.358887,4205.641113,4130.256348,4086.153809,4011.794922,47.000000,4.000000,,,,0.000000,2.000000,4.000000,4.000000,4.000000,4.000000,4.000000,4.000000,4.000000,4.000000,4.000000,2.000000,4.000000,4.000000,1.000000,41.666668
1601229392.046726,124.000000,0.000000,3885.641113,4630.769043,4125.641113,4275.384766,3984.102539,4592.307617,3958.974365,3870.256348,4310.256348,4061.538574,4202.563965,4127.692383,4071.281982,4008.205078,241.000000,4.000000,,,,0.000000,2.000000,4.000000,4.000000,4.000000,4.000000,4.000000,4.000000,4.000000,4.000000,4.000000,2.000000,4.000000,4.000000,1.000000,41.666668
1601229392.054564,125.000000,0.000000,3894.871826,4630.769043,4131.282227,4281.538574,3984.615479,4591.794922,3955.897461,3872.307617,4310.256348,4061.538574,4205.641113,4127.692383,4062.564209,4006.666748,349.000000,4.000000,,,,0.000000,2.000000,4.000000,4.000000,4.000000,4.000000,4.000000,4.000000,4.000000,4.000000,4.000000,2.000000,4.000000,4.000000,1.000000,41.666668
1601229392.062501,126.000000,0.000000,3901.025635,4628.717773,4140.512695,4284.102539,4005.641113,4603.589844,3965.641113,3881.025635,4329.743652,4080.000000,4214.358887,4137.948730,4082.051270,4012.820557,425.000000,4.000000,,,,0.000000,2.000000,4.000000,4.000000,4.000000,4.000000,4.000000,4.000000,4.000000,4.000000,4.000000,2.000000,4.000000,4.000000,1.000000,41.666668
1601229392.070338,127.000000,0.000000,3898.461426,4627.179688,4141.025879,4281.538574,4010.769287,4606.666504,3974.358887,3884.102539,4333.846191,4086.666748,4215.897461,4143.077148,4094.358887,4016.923096,47.000000,4.000000,,,,0.000000,2.000000,4.000000,4.000000,4.000000,4.000000,4.000000,4.000000,4.000000,4.000000,4.000000,2.000000,4.000000,4.000000,1.000000,41.666668
1601229392.078074,128.000000,0.000000,3893.846191,4634.358887,4135.897461,4285.641113,3994.871826,4601.538574,3967.179443,3883.589844,4327.179688,4080.000000,4215.897461,4137.436035,4087.692383,4012.307617,241.000000,4.000000,,,,0.000000,2.000000,4.000000,4.000000,4.000000,4.000000,4.000000,4.000000,4.000000,4.000000,4.000000,2.000000,4.000000,4.000000,1.000000,41.666668
1601229392.085910,0.000000,0.000000,3898.974365,4639.487305,4135.897461,4290.769043,3996.410156,4599.487305,3956.923096,3880.000000,4327.692383,4076.923096,4217.436035,4133.846191,4084.615479,4010.769287,378.000000,4.000000,,,,0.000000,2.000000,4.000000,4.000000,4.000000,4.000000,4.000000,4.000000,4.000000,4.000000,4.000000,2.000000,4.000000,4.000000,1.000000,41.666668
1601229392.093646,1.000000,0.000000,3906.666748,4634.358887,4142.563965,4287.179688,4003.589844,4604.102539,3968.205078,3880.000000,4332.307617,4077.435791,4216.410156,4135.384766,4088.718018,4014.358887,435.000000,4.000000,,,,0.000000,2.000000,4.000000,4.000000,4.000000,4.000000,4.000000,4.000000,4.000000,4.000000,4.000000,2.000000,4.000000,4.000000,1.000000,41.666668
1601229392.101482,2.000000,0.000000,3907.179443,4628.205078,4141.025879,4281.025879,3989.230713,4610.256348,3978.461426,3881.025635,4332.820313,4074.358887,4215.897461,4135.897461,4090.769287,4015.897461,384.000000,4.000000,,,,0.000000,2.000000,4.000000,4.000000,4.000000,4.000000,4.000000,4.000000,4.000000,4.000000,4.000000,2.000000,4.000000,4.000000,1.000000,41.666668
1601229392.109217,3.000000,0.000000,3904.102539,4625.641113,4132.307617,4281.025879,3979.487061,4602.051270,3957.948730,3876.923096,4329.230957,4074.871826,4218.461426,4135.384766,4092.820557,4013.846191,435.000000,4.000000,,,,0.000000,2.000000,4.000000,4.000000,4.000000,4.000000,4.000000,4.000000,4.000000,4.000000,4.000000,2.000000,4.000000,4.000000,1.000000,41.666668
1601229392.117052,4.000000,0.000000,3904.102539,4628.717773,4133.333496,4284.102539,3990.769287,4584.102539,3942.564209,3869.230713,4323.589844,4073.846191,4215.897461,4137.436035,4089.743652,4012.820557,460.000000,4.000000,,,,0.000000,2.000000,4.000000,4.000000,4.000000,4.000000,4.000000,4.000000,4.000000,4.000000,4.000000,2.000000,4.000000,4.000000,1.000000,41.666668
1601229392.124786,5.000000,0.000000,3912.820557,4643.589844,4146.666504,4287.692383,4008.205078,4597.948730,3968.205078,3877.948730,4331.794922,4078.461426,4219.487305,4144.615234,4091.281982,4015.897461,437.000000,4.000000,,,,0.000000,2.000000,4.000000,4.000000,4.000000,4.000000,4.000000,4.000000,4.000000,4.000000,4.000000,2.000000,4.000000,4.000000,1.000000,41.666668
1601229392.132621,6.000000,0.000000,3920.512939,4647.179688,4154.871582,4287.692383,4005.641113,4623.589844,3983.076904,3889.743652,4345.128418,4091.281982,4228.205078,4148.717773,4096.922852,4023.076904,448.000000,4.000000,,,,0.000000,2.000000,4.000000,4.000000,4.000000,4.000000,4.000000,4.000000,4.000000,4.000000,4.000000,2.000000,4.000000,4.000000,1.000000,41.666668
1601229392.140355,7.000000,0.000000,3916.410156,4638.461426,4146.153809,4288.717773,3995.384521,4620.000000,3971.794922,3888.718018,4344.102539,4093.333252,4228.205078,4147.179688,4101.025879,4018.461426,353.000000,4.000000,,,,0.000000,2.000000,4.000000,4.000000,4.000000,4.000000,4.000000,4.000000,4.000000,4.000000,4.000000,2.000000,4.000000,4.000000,1.000000,41.666668
1601229392.148189,8.000000,0.000000,3907.179443,4631.794922,4138.974121,4284.102539,3995.897461,4604.102539,3971.794922,3882.051270,4333.846191,4082.051270,4220.000000,4143.589844,4095.384521,4010.769287,405.000000,4.000000,,,,0.000000,2.000000,4.000000,4.000000,4.000000,4.000000,4.000000,4.000000,4.000000,4.000000,4.000000,2.000000,4.000000,4.000000,1.000000,41.666668
1601229392.155922,9.000000,0.000000,3904.102539,4625.128418,4141.025879,4276.922852,3997.948730,4607.692383,3978.461426,3882.564209,4332.820313,4080.000000,4215.384766,4140.000000,4084.615479,4008.718018,407.000000,4.000000,,,,0.000000,2.000000,4.000000,4.000000,4.000000,4.000000,4.000000,4.000000,4.000000,4.000000,4.000000,2.000000,4.000000,4.000000,1.000000,41.666668
1601229392.163755,10.000000,0.000000,3901.538574,4618.461426,4136.410156,4278.974121,3990.256348,4604.102539,3964.102539,3882.564209,4330.769043,4080.512939,4216.922852,4138.461426,4076.923096,4010.769287,427.000000,4.000000,,,,0.000000,2.000000,4.000000,4.000000,4.000000,4.000000,4.000000,4.000000,4.000000,4.000000,4.000000,2.000000,4.000000,4.000000,1.000000,41.666668
1601229392.171487,11.000000,0.000000,3897.435791,4613.333496,4126.666504,4280.000000,3987.179443,4587.692383,3952.307617,3874.358887,4315.384766,4067.179443,4213.846191,4131.282227,4079.487061,4008.205078,47.000000,4.000000,,,,0.000000,2.000000,4.000000,4.000000,4.000000,4.000000,4.000000,4.000000,4.000000,4.000000,4.000000,2.000000,4.000000,4.000000,1.000000,41.666668
1601229392.179320,12.000000,0.000000,3898.974365,4609.230957,4128.205078,4271.794922,3995.384521,4591.794922,3960.000000,3869.743652,4311.794922,4061.538574,4208.717773,4124.102539,4084.615479,4006.153809,241.000000,4.000000,,,,0.000000,2.000000,4.000000,4.000000,4.000000,4.000000,4.000000,4.000000,4.000000,4.000000,4.000000,2.000000,4.000000,4.000000,1.000000,41.666668
1601229392.187052,13.000000,0.000000,3905.128174,4612.307617,4139.487305,4274.871582,3997.435791,4609.743652,3968.718018,3878.461426,4329.230957,4073.846191,4212.307617,4131.282227,4087.179443,4009.230713,349.000000,4.000000,,,,0.000000,2.000000,4.000000,4.000000,4.000000,4.000000,4.000000,4.000000,4.000000,4.000000,4.000000,2.000000,4.000000,4.000000,1.000000,41.666668
1601229392.194884,14.000000,0.000000,3908.205078,4623.077148,4143.589844,4285.641113,3992.307617,4615.384766,3975.897461,3886.666748,4333.333496,4079.487061,4220.000000,4142.563965,4094.358887,4013.333252,427.000000,4.000000,,,,0.000000,2.000000,4.000000,4.000000,4.000000,4.000000,4.000000,4.000000,4.000000,4.000000,4.000000,2.000000,4.000000,4.000000,1.000000,41.666668
1601229392.202615,15.000000,0.000000,3907.179443,4624.615234,4143.077148,4282.563965,3995.384521,4609.230957,3975.384521,3881.538574,4321.025879,4074.871826,4220.000000,4145.128418,4097.436035,4014.871826,47.000000,4.000000,,,,0.000000,2.000000,4.000000,4.000000,4.000000,4.000000,4.000000,4.000000,4.000000,4.000000,4.000000,2.000000,4.000000,4.000000,1.000000,41.666668
1601229392.210553,16.000000,0.000000,3904.615479,4613.333496,4138.974121,4275.897461,4007.179443,4605.128418,3962.051270,3875.897461,4321.025879,4074.358887,4216.410156,4140.000000,4088.205078,4013.846191,0.000000,4.000000,,,,0.000000,2.000000,4.000000,4.000000,4.000000,4.000000,4.000000,4.000000,4.000000,4.000000,4.000000,2.000000,4.000000,4.000000,1.000000,41.666668
1601229392.218390,17.000000,0.000000,3903.076904,4604.102539,4132.307617,4273.333496,4003.589844,4603.589844,3954.871826,3877.948730,4323.077148,4072.820557,4214.871582,4136.922852,4075.897461,4013.846191,0.000000,4.000000,,,,0.000000,2.000000,4.000000,4.000000,4.000000,4.000000,4.000000,4.000000,4.000000,4.000000,4.000000,2.000000,4.000000,4.000000,1.000000,41.666668
1601229392.226328,18.000000,0.000000,3902.051270,4599.487305,4128.717773,4268.205078,3987.692383,4605.641113,3965.641113,3877.435791,4318.974121,4068.205078,4211.794922,4133.333496,4072.820557,4010.769287,0.000000,4.000000,,,,0.000000,2.000000,4.000000,4.000000,4.000000,4.000000,4.000000,4.000000,4.000000,4.000000,4.000000,2.000000,4.000000,4.000000,1.000000,41.666668
1601229392.234165,19.000000,0.000000,3897.435791,4593.333496,4126.666504,4263.589844,3983.076904,4611.282227,3980.512939,3877.948730,4322.563965,4064.102539,4210.769043,4127.179688,4077.435791,4006.153809,0.000000,4.000000,,,,0.000000,2.000000,4.000000,4.000000,4.000000,4.000000,4.000000,4.000000,4.000000,4.000000,4.000000,2.000000,4.000000,4.000000,1.000000,41.666668
1601229392.242102,20.000000,0.000000,3889.743652,4595.897461,4126.666504,4270.769043,3988.205078,4619.487305,3987.179443,3889.230713,4335.897461,4068.205078,4213.333496,4128.717773,4085.641113,4005.128174,0.000000,4.000000,,,,0.000000,2.000000,4.000000,4.000000,4.000000,4.000000,4.000000,4.000000,4.000000,4.000000,4.000000,2.000000,4.000000,4.000000,1.000000,41.666668
1601229392.249939,21.000000,0.000000,3890.256348,4602.051270,4130.256348,4275.897461,3990.769287,4619.487305,3978.461426,3893.846191,4340.000000,4073.333252,4212.820313,4138.974121,4086.153809,4008.718018,0.000000,4.000000,,,,0.000000,2.000000,4.000000,4.000000,4.000000,4.000000,4.000000,4.000000,4.000000,4.000000,4.000000,2.000000,4.000000,4.000000,1.000000,41.666668
1601229392.257875,22.000000,0.000000,3901.025635,4604.102539,4136.410156,4275.384766,4000.000000,4610.256348,3966.153809,3886.666748,4337.948730,4077.435791,4212.307617,4142.563965,4084.615479,4011.794922,0.000000,4.000000,,,,0.000000,2.000000,4.000000,4.000000,4.000000,4.000000,4.000000,4.000000,4.000000,4.000000,4.000000,2.000000,4.000000,4.000000,1.000000,41.666668
1601229392.265711,23.000000,0.000000,3907.692383,4601.025879,4140.512695,4281.538574,4008.205078,4601.538574,3961.025635,3875.384521,4329.230957,4076.410156,4214.358887,4139.487305,4088.718018,4013.333252,0.000000,4.000000,,,,0.000000,2.000000,4.000000,4.000000,4.000000,4.000000,4.000000,4.000000,4.000000,4.000000,4.000000,2.000000,4.000000,4.000000,1.000000,41.666668
1601229392.273447,24.000000,0.000000,3907.692383,4601.025879,4140.000000,4289.230957,4004.615479,4605.128418,3965.128174,3873.333252,4325.128418,4077.435791,4217.436035,4143.589844,4090.256348,4009.743652,0.000000,4.000000,,,,0.000000,2.000000,4.000000,4.000000,4.000000,4.000000,4.000000,4.000000,4.000000,4.000000,4.000000,2.000000,4.000000,4.000000,1.000000,41.666668
1601229392.281282,25.000000,0.000000,3904.102539,4601.538574,4134.358887,4278.461426,3989.743652,4607.692383,3967.179443,3876.923096,4325.641113,4075.897461,4217.436035,4144.102539,4085.641113,4010.769287,0.000000,4.000000,,,,0.000000,2.000000,4.000000,4.000000,4.000000,4.000000,4.000000,4.000000,4.000000,4.000000,4.000000,2.000000,4.000000,4.000000,1.000000,41.666668
1601229392.289017,26.000000,0.000000,3897.435791,4601.538574,4128.717773,4263.589844,3978.461426,4601.538574,3964.102539,3876.410156,4321.025879,4068.205078,4213.846191,4137.948730,4086.666748,4011.281982,0.000000,4.000000,,,,0.000000,2.000000,4.000000,4.000000,4.000000,4.000000,4.000000,4.000000,4.000000,4.000000,4.000000,2.000000,4.000000,4.000000,1.000000,41.666668
1601229392.296851,27.000000,0.000000,3898.461426,4605.641113,4131.282227,4264.102539,3985.128174,4600.512695,3958.461426,3874.358887,4320.000000,4068.205078,4212.820313,4137.436035,4092.307617,4008.205078,0.000000,4.000000,,,,0.000000,2.000000,4.000000,4.000000,4.000000,4.000000,4.000000,4.000000,4.000000,4.000000,4.000000,2.000000,4.000000,4.000000,1.000000,41.666668
1601229392.304586,28.000000,0.000000,3912.820557,4604.102539,4142.563965,4273.333496,3996.923096,4610.256348,3962.051270,3878.461426,4329.230957,4078.974365,4217.948730,4143.589844,4096.410156,4008.205078,0.000000,4.000000,,,,0.000000,2.000000,4.000000,4.000000,4.000000,4.000000,4.000000,4.000000,4.000000,4.000000,4.000000,2.000000,4.000000,4.000000,1.000000,41.666668
1601229392.312420,29.000000,0.000000,3916.923096,4596.922852,4146.666504,4283.077148,4001.538574,4611.794922,3973.333252,3886.153809,4333.333496,4083.076904,4221.538574,4144.615234,4096.410156,4011.281982,0.000000,4.000000,,,,0.000000,2.000000,4.000000,4.000000,4.000000,4.000000,4.000000,4.000000,4.000000,4.000000,4.000000,2.000000,4.000000,4.000000,1.000000,41.666668
1601229392.320155,30.000000,0.000000,3904.102539,4591.282227,4136.410156,4282.563965,4002.051270,4602.563965,3967.179443,3882.051270,4325.641113,4071.281982,4216.410156,4136.922852,4090.769287,4010.769287,0.000000,4.000000,,,,0.000000,2.000000,4.000000,4.000000,4.000000,4.000000,4.000000,4.000000,4.000000,4.000000,4.000000,2.000000,4.000000,4.000000,1.000000,41.666668
1601229392.327989,31.000000,0.000000,3897.435791,4591.282227,4127.692383,4269.743652,3997.435791,4601.025879,3952.307617,3871.794922,4318.974121,4061.538574,4212.820313,4133.333496,4086.153809,4008.205078,0.000000,4.000000,,,,0.000000,2.000000,4.000000,4.000000,4.000000,4.000000,4.000000,4.000000,4.000000,4.000000,4.000000,2.000000,4.000000,4.000000,1.000000,41.666668
1601229392.335722,32.000000,0.000000,3902.564209,4595.384766,4134.358887,4261.025879,3988.205078,4604.615234,3955.384521,3873.333252,4319.487305,4066.666748,4216.922852,4140.512695,4079.487061,4009.230713,0.000000,4.000000,,,,0.000000,2.000000,4.000000,4.000000,4.000000,4.000000,4.000000,4.000000,4.000000,4.000000,4.000000,2.000000,4.000000,4.000000,1.000000,41.666668
1601229392.343555,33.000000,0.000000,3906.666748,4604.615234,4138.974121,4270.769043,3988.205078,4613.333496,3968.718018,3882.051270,4329.743652,4074.871826,4220.000000,4144.615234,4075.897461,4009.230713,0.000000,4.000000,,,,0.000000,2.000000,4.000000,4.000000,4.000000,4.000000,4.000000,4.000000,4.000000,4.000000,4.000000,2.000000,4.000000,4.000000,1.000000,41.666668
1601229392.351288,34.000000,0.000000,3905.641113,4607.692383,4135.897461,4280.512695,3997.948730,4624.102539,3969.743652,3883.589844,4337.948730,4077.435791,4219.487305,4143.589844,4085.641113,4008.718018,0.000000,4.000000,,,,0.000000,2.000000,4.000000,4.000000,4.000000,4.000000,4.000000,4.000000,4.000000,4.000000,4.000000,2.000000,4.000000,4.000000,1.000000,41.666668
1601229392.359120,35.000000,0.000000,3896.410156,4599.487305,4131.282227,4277.436035,3996.923096,4620.512695,3970.256348,3881.538574,4335.897461,4075.897461,4220.000000,4141.538574,4093.846191,4006.666748,0.000000,4.000000,,,,0.000000,2.000000,4.000000,4.000000,4.000000,4.000000,4.000000,4.000000,4.000000,4.000000,4.000000,2.000000,4.000000,4.000000,1.000000,41.666668
1601229392.366853,36.000000,0.000000,3891.794922,4595.384766,4130.769043,4271.282227,3987.179443,4610.769043,3976.410156,3881.025635,4327.179688,4070.769287,4218.974121,4142.051270,4088.718018,4009.230713,0.000000,4.000000,,,,0.000000,2.000000,4.000000,4.000000,4.000000,4.000000,4.000000,4.000000,4.000000,4.000000,4.000000,2.000000,4.000000,4.000000,1.000000,41.666668
1601229392.374685,37.000000,0.000000,3902.051270,4595.384766,4136.410156,4270.769043,4000.000000,4615.897461,3971.281982,3878.974365,4327.179688,4069.230713,4216.410156,4140.000000,4088.718018,4009.230713,0.000000,4.000000,,,,0.000000,2.000000,4.000000,4.000000,4.000000,4.000000,4.000000,4.000000,4.000000,4.000000,4.000000,2.000000,4.000000,4.000000,1.000000,41.666668
1601229392.382417,38.000000,0.000000,3901.025635,4585.641113,4134.358887,4269.230957,4008.205078,4613.846191,3961.025635,3877.435791,4327.179688,4064.615479,4214.871582,4131.794922,4084.102539,4006.153809,0.000000,4.000000,,,,0.000000,2.000000,4.000000,4.000000,4.000000,4.000000,4.000000,4.000000,4.000000,4.000000,4.000000,2.000000,4.000000,4.000000,1.000000,41.666668
1601229392.390355,39.000000,0.000000,3887.692383,4580.512695,4123.589844,4270.256348,3993.333252,4607.179688,3964.615479,3880.512939,4322.563965,4060.512939,4216.410156,4129.743652,4078.974365,4004.615479,0.000000,4.000000,,,,0.000000,2.000000,4.000000,4.000000,4.000000,4.000000,4.000000,4.000000,4.000000,4.000000,4.000000,2.000000,4.000000,4.000000,1.000000,41.666668
1601229392.398192,40.000000,0.000000,3888.718018,4581.538574,4123.077148,4275.897461,3983.076904,4612.820313,3966.153809,3879.487061,4317.948730,4057.435791,4214.871582,4136.410156,4085.128174,4006.153809,0.000000,4.000000,,,,0.000000,2.000000,4.000000,4.000000,4.000000,4.000000,4.000000,4.000000,4.000000,4.000000,4.000000,2.000000,4.000000,4.000000,1.000000,41.666668
1601229392.406129,41.000000,0.000000,3900.000000,4585.641113,4134.358887,4277.948730,3995.384521,4618.974121,3963.076904,3874.358887,4322.051270,4056.923096,4213.333496,4138.461426,4089.230713,4006.153809,0.000000,4.000000,,,,0.000000,2.000000,4.000000,4.000000,4.000000,4.000000,4.000000,4.000000,4.000000,4.000000,4.000000,2.000000,4.000000,4.000000,1.000000,41.666668
1601229392.413966,42.000000,0.000000,3900.512939,4591.282227,4133.846191,4276.410156,3993.333252,4610.256348,3962.564209,3871.794922,4321.538574,4049.743652,4215.384766,4136.922852,4083.589844,4021.025635,0.000000,4.000000,,,,0.000000,2.000000,4.000000,4.000000,4.000000,4.000000,4.000000,4.000000,4.000000,4.000000,4.000000,2.000000,4.000000,4.000000,1.000000,41.666668
1601229392.421902,43.000000,0.000000,3897.948730,4592.307617,4128.717773,4280.512695,3986.153809,4603.077148,3960.512939,3871.281982,4315.897461,4042.564209,4215.897461,4135.384766,4082.564209,4035.384521,0.000000,4.000000,,,,0.000000,2.000000,4.000000,4.000000,4.000000,4.000000,4.000000,4.000000,4.000000,4.000000,4.000000,2.000000,4.000000,4.000000,1.000000,41.666668
1601229392.429739,44.000000,0.000000,3896.410156,4586.153809,4132.820313,4285.128418,4002.051270,4605.128418,3955.897461,3873.846191,4322.563965,4043.589844,4210.769043,4132.820313,4079.487061,4030.769287,0.000000,4.000000,,,,0.000000,2.000000,4.000000,4.000000,4.000000,4.000000,4.000000,4.000000,4.000000,4.000000,4.000000,2.000000,4.000000,4.000000,1.000000,41.666668
1601229392.437675,45.000000,0.000000,3892.307617,4581.538574,4133.846191,4281.538574,4006.666748,4609.230957,3959.487061,3876.923096,4327.179688,4047.179443,4208.717773,4128.205078,4067.692383,4018.974365,0.000000,4.000000,,,,0.000000,2.000000,4.000000,4.000000,4.000000,4.000000,4.000000,4.000000,4.000000,4.000000,4.000000,2.000000,4.000000,4.000000,1.000000,41.666668
1601229392.445510,46.000000,0.000000,3882.051270,4575.384766,4126.153809,4271.794922,3985.128174,4612.307617,3964.615479,3872.820557,4315.897461,4044.102539,4209.743652,4124.102539,4067.692383,4011.794922,0.000000,4.000000,,,,0.000000,2.000000,4.000000,4.000000,4.000000,4.000000,4.000000,4.000000,4.000000,4.000000,4.000000,2.000000,4.000000,4.000000,1.000000,41.666668
1601229392.453246,47.000000,0.000000,3870.256348,4567.179688,4118.461426,4265.128418,3975.897461,4612.820313,3964.615479,3866.666748,4306.153809,4033.846191,4206.666504,4122.563965,4075.897461,4006.153809,0.000000,4.000000,,,,0.000000,2.000000,4.000000,4.000000,4.000000,4.000000,4.000000,4.000000,4.000000,4.000000,4.000000,2.000000,4.000000,4.000000,1.000000,41.666668
1601229392.461187,48.000000,0.000000,3873.333252,4573.846191,4118.461426,4270.769043,3989.743652,4616.922852,3962.051270,3870.769287,4313.333496,4037.435791,4204.102539,4123.077148,4075.384521,4006.153809,0.000000,4.000000,,,,0.000000,2.000000,4.000000,4.000000,4.000000,4.000000,4.000000,4.000000,4.000000,4.000000,4.000000,2.000000,4.000000,4.000000,1.000000,41.666668
1601229392.469029,49.000000,0.000000,3885.641113,4583.077148,4126.153809,4272.820313,3994.358887,4619.487305,3956.410156,3874.871826,4324.102539,4049.743652,4207.179688,4126.153809,4075.384521,4013.333252,0.000000,4.000000,,,,0.000000,2.000000,4.000000,4.000000,4.000000,4.000000,4.000000,4.000000,4.000000,4.000000,4.000000,2.000000,4.000000,4.000000,1.000000,41.666668
1601229392.476870,50.000000,0.000000,3891.281982,4584.102539,4130.769043,4271.282227,3986.666748,4617.948730,3960.000000,3872.307617,4326.666504,4053.333252,4212.307617,4131.282227,4085.128174,4012.307617,0.000000,4.000000,,,,0.000000,2.000000,4.000000,4.000000,4.000000,4.000000,4.000000,4.000000,4.000000,4.000000,4.000000,2.000000,4.000000,4.000000,1.000000,41.666668
1601229392.484604,51.000000,0.000000,3889.230713,4580.000000,4128.717773,4277.948730,3994.871826,4617.436035,3971.281982,3873.846191,4328.205078,4053.846191,4214.358887,4135.897461,4090.769287,4011.281982,0.000000,4.000000,,,,0.000000,2.000000,4.000000,4.000000,4.000000,4.000000,4.000000,4.000000,4.000000,4.000000,4.000000,2.000000,4.000000,4.000000,1.000000,41.666668
1601229392.492439,52.000000,0.000000,3888.205078,4583.589844,4127.179688,4284.615234,4010.769287,4623.077148,3975.897461,3882.564209,4336.922852,4062.051270,4220.000000,4135.897461,4096.922852,4017.948730,0.000000,4.000000,,,,0.000000,2.000000,4.000000,4.000000,4.000000,4.000000,4.000000,4.000000,4.000000,4.000000,4.000000,2.000000,4.000000,4.000000,1.000000,41.666668
1601229392.500172,53.000000,0.000000,3886.666748,4582.563965,4130.256348,4277.436035,4004.102539,4624.102539,3973.333252,3882.564209,4336.410156,4060.512939,4226.153809,4133.846191,4095.897461,4023.589844,0.000000,4.000000,,,,0.000000,2.000000,4.000000,4.000000,4.000000,4.000000,4.000000,4.000000,4.000000,4.000000,4.000000,2.000000,4.000000,4.000000,1.000000,41.666668
1601229392.508005,54.000000,0.000000,3885.128174,4579.487305,4127.692383,4274.871582,3989.230713,4614.358887,3968.718018,3875.897461,4325.641113,4049.743652,4220.000000,4132.307617,4078.461426,4017.435791,0.000000,4.000000,,,,0.000000,2.000000,4.000000,4.000000,4.000000,4.000000,4.000000,4.000000,4.000000,4.000000,4.000000,2.000000,4.000000,4.000000,1.000000,41.666668
1601229392.515739,55.000000,0.000000,3886.666748,4590.769043,4121.025879,4282.051270,3987.179443,4609.230957,3958.461426,3872.820557,4325.641113,4049.743652,4208.717773,4129.230957,4072.307617,4014.358887,0.000000,4.000000,,,,0.000000,2.000000,4.000000,4.000000,4.000000,4.000000,4.000000,4.000000,4.000000,4.000000,4.000000,2.000000,4.000000,4.000000,1.000000,41.666668
1601229392.523572,56.000000,0.000000,3893.846191,4603.077148,4128.717773,4282.051270,3992.307617,4620.000000,3960.000000,3879.487061,4337.436035,4061.538574,4212.307617,4132.820313,4091.281982,4015.897461,0.000000,4.000000,,,,0.000000,2.000000,4.000000,4.000000,4.000000,4.000000,4.000000,4.000000,4.000000,4.000000,4.000000,2.000000,4.000000,4.000000,1.000000,41.666668
1601229392.531305,57.000000,0.000000,3899.487061,4595.384766,4141.538574,4283.077148,4000.000000,4628.205078,3975.897461,3889.743652,4343.589844,4068.205078,4220.512695,4138.461426,4102.051270,4013.846191,0.000000,4.000000,,,,0.000000,2.000000,4.000000,4.000000,4.000000,4.000000,4.000000,4.000000,4.000000,4.000000,4.000000,2.000000,4.000000,4.000000,1.000000,41.666668
1601229392.539137,58.000000,0.000000,3891.794922,4589.743652,4136.922852,4290.769043,4013.846191,4627.692383,3988.205078,3892.307617,4347.692383,4069.743652,4220.000000,4140.512695,4100.512695,4011.794922,0.000000,4.000000,,,,0.000000,2.000000,4.000000,4.000000,4.000000,4.000000,4.000000,4.000000,4.000000,4.000000,4.000000,2.000000,4.000000,4.000000,1.000000,41.666668
1601229392.546869,59.000000,0.000000,3885.128174,4597.948730,4127.692383,4288.205078,4010.256348,4623.077148,3979.487061,3884.102539,4347.179688,4069.743652,4219.487305,4139.487305,4097.948730,4016.410156,0.000000,4.000000,,,,0.000000,2.000000,4.000000,4.000000,4.000000,4.000000,4.000000,4.000000,4.000000,4.000000,4.000000,2.000000,4.000000,4.000000,1.000000,41.666668
1601229392.554807,60.000000,0.000000,3891.794922,4597.948730,4130.256348,4277.948730,3989.230713,4615.897461,3966.153809,3877.948730,4334.871582,4059.487061,4218.974121,4135.897461,4091.794922,4015.384521,0.000000,4.000000,,,,0.000000,2.000000,4.000000,4.000000,4.000000,4.000000,4.000000,4.000000,4.000000,4.000000,4.000000,2.000000,4.000000,4.000000,1.000000,41.666668
1601229392.562645,61.000000,0.000000,3898.461426,4589.230957,4136.410156,4274.871582,3986.666748,4609.230957,3963.076904,3877.948730,4324.102539,4047.692383,4216.922852,4136.410156,4083.076904,4013.333252,0.000000,4.000000,,,,0.000000,2.000000,4.000000,4.000000,4.000000,4.000000,4.000000,4.000000,4.000000,4.000000,4.000000,2.000000,4.000000,4.000000,1.000000,41.666668
1601229392.570582,62.000000,0.000000,3899.487061,4583.589844,4140.512695,4278.974121,4001.025635,4609.230957,3965.128174,3874.358887,4320.512695,4048.718018,4215.897461,4140.000000,4077.948730,4015.897461,0.000000,4.000000,,,,0.000000,2.000000,4.000000,4.000000,4.000000,4.000000,4.000000,4.000000,4.000000,4.000000,4.000000,2.000000,4.000000,4.000000,1.000000,41.666668
1601229392.578420,63.000000,0.000000,3899.487061,4582.051270,4141.538574,4282.563965,3999.487061,4610.769043,3961.025635,3868.205078,4317.436035,4044.615479,4211.794922,4134.358887,4077.948730,4014.871826,0.000000,4.000000,,,,0.000000,2.000000,4.000000,4.000000,4.000000,4.000000,4.000000,4.000000,4.000000,4.000000,4.000000,2.000000,4.000000,4.000000,1.000000,41.666668
1601229392.586357,64.000000,0.000000,3897.948730,4591.282227,4135.384766,4279.487305,3994.358887,4607.692383,3955.897461,3866.153809,4315.897461,4030.769287,4206.666504,4128.717773,4080.512939,4012.820557,378.000000,4.000000,,,,0.000000,2.000000,4.000000,4.000000,4.000000,4.000000,4.000000,4.000000,4.000000,4.000000,4.000000,2.000000,4.000000,4.000000,1.000000,41.666668
1601229392.594193,65.000000,0.000000,3890.769287,4593.846191,4126.666504,4268.205078,3998.461426,4601.025879,3954.358887,3862.564209,4312.307617,4027.179443,4204.102539,4129.230957,4071.281982,4013.846191,436.000000,4.000000,,,,0.000000,2.000000,4.000000,4.000000,4.000000,4.000000,4.000000,4.000000,4.000000,4.000000,4.000000,2.000000,4.000000,4.000000,1.000000,41.666668
1601229392.602130,66.000000,0.000000,3885.641113,4584.102539,4125.128418,4265.641113,3992.820557,4598.461426,3950.256348,3861.025635,4307.179688,4034.871826,4203.589844,4127.692383,4056.410156,4013.846191,384.000000,4.000000,,,,0.000000,2.000000,4.000000,4.000000,4.000000,4.000000,4.000000,4.000000,4.000000,4.000000,4.000000,2.000000,4.000000,4.000000,1.000000,41.666668
1601229392.609966,67.000000,0.000000,3890.769287,4585.128418,4130.769043,4275.897461,3991.281982,4612.307617,3953.846191,3869.230713,4317.436035,4046.666748,4212.820313,4131.794922,4066.666748,4013.333252,433.000000,4.000000,,,,0.000000,2.000000,4.000000,4.000000,4.000000,4.000000,4.000000,4.000000,4.000000,4.000000,4.000000,2.000000,4.000000,4.000000,1.000000,41.666668
1601229392.617902,68.000000,0.000000,3897.948730,4592.307617,4132.820313,4277.948730,3998.461426,4619.487305,3958.974365,3874.358887,4327.692383,4051.794922,4222.051270,4140.000000,4087.179443,4014.358887,458.000000,4.000000,,,,0.000000,2.000000,4.000000,4.000000,4.000000,4.000000,4.000000,4.000000,4.000000,4.000000,4.000000,2.000000,4.000000,4.000000,1.000000,41.666668
1601229392.625737,69.000000,0.000000,3895.384521,4594.358887,4130.256348,4274.871582,4006.666748,4615.384766,3962.564209,3874.871826,4326.666504,4049.743652,4218.974121,4136.922852,4090.769287,4010.256348,436.000000,4.000000,,,,0.000000,2.000000,4.000000,4.000000,4.000000,4.000000,4.000000,4.000000,4.000000,4.000000,4.000000,2.000000,4.000000,4.000000,1.000000,41.666668
1601229392.633472,70.000000,0.000000,3893.846191,4591.794922,4132.307617,4278.974121,4010.256348,4614.871582,3966.153809,3874.358887,4324.615234,4044.615479,4213.333496,4133.333496,4086.666748,4006.666748,447.000000,4.000000,,,,0.000000,2.000000,4.000000,4.000000,4.000000,4.000000,4.000000,4.000000,4.000000,4.000000,4.000000,2.000000,4.000000,4.000000,1.000000,41.666668
1601229392.641307,71.000000,0.000000,3895.384521,4593.333496,4135.897461,4281.538574,4002.564209,4613.333496,3962.564209,3872.820557,4327.692383,4042.051270,4212.307617,4134.871582,4088.205078,4004.615479,353.000000,4.000000,,,,0.000000,2.000000,4.000000,4.000000,4.000000,4.000000,4.000000,4.000000,4.000000,4.000000,4.000000,2.000000,4.000000,4.000000,1.000000,41.666668
1601229392.649041,72.000000,0.000000,3890.256348,4587.692383,4131.282227,4270.256348,3988.718018,4605.128418,3953.846191,3868.718018,4321.538574,4037.435791,4209.230957,4130.256348,4080.512939,4007.179443,408.000000,4.000000,,,,0.000000,2.000000,4.000000,4.000000,4.000000,4.000000,4.000000,4.000000,4.000000,4.000000,4.000000,2.000000,4.000000,4.000000,1.000000,41.666668
1601229392.656982,73.000000,0.000000,3887.179443,4579.487305,4127.179688,4266.666504,3995.384521,4606.153809,3954.871826,3867.179443,4315.384766,4033.333252,4210.256348,4130.769043,4070.256348,4011.281982,409.000000,4.000000,,,,0.000000,2.000000,4.000000,4.000000,4.000000,4.000000,4.000000,4.000000,4.000000,4.000000,4.000000,2.000000,4.000000,4.000000,1.000000,41.666668
1601229392.664822,74.000000,0.000000,3892.820557,4587.179688,4131.794922,4276.922852,3998.974365,4614.871582,3959.487061,3868.718018,4321.538574,4032.307617,4214.871582,4137.948730,4071.794922,4012.820557,427.000000,4.000000,,,,0.000000,2.000000,4.000000,4.000000,4.000000,4.000000,4.000000,4.000000,4.000000,4.000000,4.000000,2.000000,4.000000,4.000000,1.000000,41.666668
1601229392.672662,75.000000,0.000000,3898.461426,4601.025879,4141.538574,4284.102539,3991.281982,4614.358887,3965.641113,3873.333252,4332.307617,4038.974365,4214.358887,4137.948730,4080.000000,4008.718018,46.000000,4.000000,,,,0.000000,2.000000,4.000000,4.000000,4.000000,4.000000,4.000000,4.000000,4.000000,4.000000,4.000000,2.000000,4.000000,4.000000,1.000000,41.666668
1601229392.680396,76.000000,0.000000,3897.435791,4597.948730,4143.077148,4279.487305,4007.179443,4617.436035,3977.948730,3877.948730,4336.410156,4051.281982,4216.410156,4137.948730,4088.205078,4009.230713,241.000000,4.000000,,,,0.000000,2.000000,4.000000,4.000000,4.000000,4.000000,4.000000,4.000000,4.000000,4.000000,4.000000,2.000000,4.000000,4.000000,1.000000,41.666668
1601229392.688229,77.000000,0.000000,3892.307617,4587.179688,4132.820313,4271.794922,4015.897461,4620.512695,3974.358887,3876.410156,4332.307617,4049.230713,4218.461426,4139.487305,4091.794922,4012.307617,349.000000,4.000000,,,,0.000000,2.000000,4.000000,4.000000,4.000000,4.000000,4.000000,4.000000,4.000000,4.000000,4.000000,2.000000,4.000000,4.000000,1.000000,41.666668
1601229392.695962,78.000000,0.000000,3888.718018,4587.179688,4127.179688,4267.692383,3993.846191,4606.666504,3952.820557,3869.743652,4323.077148,4036.923096,4215.897461,4135.897461,4085.128174,4011.794922,427.000000,4.000000,,,,0.000000,2.000000,4.000000,4.000000,4.000000,4.000000,4.000000,4.000000,4.000000,4.000000,4.000000,2.000000,4.000000,4.000000,1.000000,41.666668
1601229392.703795,79.000000,0.000000,3892.820557,4587.179688,4132.307617,4272.307617,3989.743652,4603.077148,3951.281982,3870.769287,4322.051270,4038.461426,4216.410156,4134.871582,4078.461426,4009.230713,46.000000,4.000000,,,,0.000000,2.000000,4.000000,4.000000,4.000000,4.000000,4.000000,4.000000,4.000000,4.000000,4.000000,2.000000,4.000000,4.000000,1.000000,41.666668
1601229392.711528,80.000000,0.000000,3893.333252,4589.743652,4131.282227,4279.487305,4008.718018,4623.077148,3976.923096,3880.000000,4336.922852,4050.256348,4219.487305,4140.000000,4088.718018,4011.794922,241.000000,4.000000,,,,0.000000,2.000000,4.000000,4.000000,4.000000,4.000000,4.000000,4.000000,4.000000,4.000000,4.000000,2.000000,4.000000,4.000000,1.000000,41.666668
1601229392.719466,81.000000,0.000000,3891.794922,4596.922852,4129.743652,4275.897461,4015.384521,4630.256348,3985.128174,3881.538574,4347.179688,4052.307617,4222.563965,4138.974121,4098.974121,4016.410156,349.000000,4.000000,,,,0.000000,2.000000,4.000000,4.000000,4.000000,4.000000,4.000000,4.000000,4.000000,4.000000,4.000000,2.000000,4.000000,4.000000,1.000000,41.666668
1601229392.727304,82.000000,0.000000,3900.000000,4598.461426,4137.436035,4277.436035,4010.256348,4621.025879,3969.743652,3876.923096,4343.589844,4049.743652,4223.077148,4136.922852,4092.307617,4015.384521,427.000000,4.000000,,,,0.000000,2.000000,4.000000,4.000000,4.000000,4.000000,4.000000,4.000000,4.000000,4.000000,4.000000,2.000000,4.000000,4.000000,1.000000,41.666668
1601229392.735142,83.000000,0.000000,3901.025635,4597.436035,4136.922852,4283.589844,3997.435791,4614.871582,3960.000000,3873.333252,4338.974121,4043.076904,4218.461426,4136.922852,4084.615479,4011.281982,46.000000,4.000000,,,,0.000000,2.000000,4.000000,4.000000,4.000000,4.000000,4.000000,4.000000,4.000000,4.000000,4.000000,2.000000,4.000000,4.000000,1.000000,41.666668
1601229392.742874,84.000000,0.000000,3889.230713,4595.897461,4128.717773,4281.538574,3994.871826,4616.922852,3968.205078,3872.820557,4338.461426,4038.461426,4220.000000,4135.897461,4086.153809,4012.307617,241.000000,4.000000,,,,0.000000,2.000000,4.000000,4.000000,4.000000,4.000000,4.000000,4.000000,4.000000,4.000000,4.000000,2.000000,4.000000,4.000000,1.000000,41.666668
1601229392.750811,85.000000,0.000000,3884.615479,4592.307617,4134.358887,4276.922852,4008.205078,4619.487305,3971.281982,3873.333252,4338.461426,4041.025635,4224.102539,4137.948730,4087.692383,4018.461426,349.000000,4.000000,,,,0.000000,2.000000,4.000000,4.000000,4.000000,4.000000,4.000000,4.000000,4.000000,4.000000,4.000000,2.000000,4.000000,4.000000,1.000000,41.666668
1601229392.758649,86.000000,0.000000,3893.333252,4590.769043,4141.538574,4277.436035,4005.641113,4616.410156,3963.589844,3872.307617,4333.846191,4037.435791,4218.461426,4136.410156,4088.718018,4014.358887,427.000000,4.000000,,,,0.000000,2.000000,4.000000,4.000000,4.000000,4.000000,4.000000,4.000000,4.000000,4.000000,4.000000,2.000000,4.000000,4.000000,1.000000,41.666668
1601229392.766487,87.000000,0.000000,3894.871826,4592.307617,4136.922852,4278.974121,3987.179443,4611.794922,3967.692383,3869.230713,4325.641113,4024.615479,4211.282227,4132.820313,4087.692383,4008.718018,46.000000,4.000000,,,,0.000000,2.000000,4.000000,4.000000,4.000000,4.000000,4.000000,4.000000,4.000000,4.000000,4.000000,2.000000,4.000000,4.000000,1.000000,41.666668
1601229392.774217,88.000000,0.000000,3889.743652,4594.871582,4137.436035,4279.487305,3993.333252,4623.077148,3981.025635,3873.333252,4329.743652,4025.128174,4215.384766,4136.410156,4085.128174,4009.230713,241.000000,4.000000,,,,0.000000,2.000000,4.000000,4.000000,4.000000,4.000000,4.000000,4.000000,4.000000,4.000000,4.000000,2.000000,4.000000,4.000000,1.000000,41.666668
1601229392.782154,89.000000,0.000000,3889.743652,4595.384766,4142.563965,4279.487305,4009.743652,4628.717773,3976.923096,3881.025635,4339.487305,4036.410156,4219.487305,4141.538574,4084.615479,4013.333252,349.000000,4.000000,,,,0.000000,2.000000,4.000000,4.000000,4.000000,4.000000,4.000000,4.000000,4.000000,4.000000,4.000000,2.000000,4.000000,4.000000,1.000000,41.666668
1601229392.789990,90.000000,0.000000,3894.871826,4591.282227,4136.922852,4278.461426,4008.205078,4621.025879,3969.230713,3883.589844,4339.487305,4042.564209,4220.000000,4142.563965,4089.230713,4014.358887,427.000000,4.000000,,,,0.000000,2.000000,4.000000,4.000000,4.000000,4.000000,4.000000,4.000000,4.000000,4.000000,4.000000,2.000000,4.000000,4.000000,1.000000,41.666668
1601229392.797956,91.000000,0.000000,3901.025635,4587.179688,4136.410156,4276.410156,4002.051270,4623.589844,3973.333252,3885.128174,4343.077148,4047.692383,4227.692383,4146.153809,4095.384521,4016.410156,46.000000,4.000000,,,,0.000000,2.000000,4.000000,4.000000,4.000000,4.000000,4.000000,4.000000,4.000000,4.000000,4.000000,2.000000,4.000000,4.000000,1.000000,41.666668
1601229392.805823,92.000000,0.000000,3901.538574,4591.794922,4142.563965,4273.333496,4001.538574,4625.128418,3972.820557,3884.615479,4348.717773,4046.666748,4230.256348,4147.179688,4095.384521,4016.923096,241.000000,4.000000,,,,0.000000,2.000000,4.000000,4.000000,4.000000,4.000000,4.000000,4.000000,4.000000,4.000000,4.000000,2.000000,4.000000,4.000000,1.000000,41.666668
1601229392.813689,93.000000,0.000000,3891.794922,4595.897461,4136.410156,4270.769043,3993.846191,4614.871582,3967.179443,3876.923096,4337.436035,4034.358887,4218.974121,4134.358887,4085.641113,4011.281982,349.000000,4.000000,,,,0.000000,2.000000,4.000000,4.000000,4.000000,4.000000,4.000000,4.000000,4.000000,4.000000,4.000000,2.000000,4.000000,4.000000,1.000000,41.666668
1601229392.821555,94.000000,0.000000,3885.641113,4595.384766,4127.179688,4271.282227,3990.769287,4617.948730,3973.333252,3876.923096,4330.256348,4032.820557,4212.820313,4127.692383,4084.615479,4006.153809,427.000000,4.000000,,,,0.000000,2.000000,4.000000,4.000000,4.000000,4.000000,4.000000,4.000000,4.000000,4.000000,4.000000,2.000000,4.000000,4.000000,1.000000,41.666668
1601229392.829422,95.000000,0.000000,3891.281982,4595.384766,4130.769043,4273.846191,4002.564209,4627.692383,3977.435791,3881.025635,4339.487305,4038.461426,4218.461426,4133.846191,4091.794922,4007.179443,46.000000,4.000000,,,,0.000000,2.000000,4.000000,4.000000,4.000000,4.000000,4.000000,4.000000,4.000000,4.000000,4.000000,2.000000,4.000000,4.000000,1.000000,41.666668
