title:your record name, start timestamp:1601229785.748166, stop timestamp:1601229788.758417, headset type:EPOC, headset serial:29394885, headset firmware:1e00, subject name:alzaabi.su, channels:38, sampling rate:128, samples:386       , version:2.0
Timestamp,EEG.Counter,EEG.Interpolated,EEG.AF3,EEG.F7,EEG.F3,EEG.FC5,EEG.T7,EEG.P7,EEG.O1,EEG.O2,EEG.P8,EEG.T8,EEG.FC6,EEG.F4,EEG.F8,EEG.AF4,EEG.RawCq,EEG.Battery,MarkerIndex,MarkerType,MarkerValueInt,EEG.MarkerHardware,CQ.AF3,CQ.F7,CQ.F3,CQ.FC5,CQ.T7,CQ.P7,CQ.O1,CQ.O2,CQ.P8,CQ.T8,CQ.FC6,CQ.F4,CQ.F8,CQ.AF4,CQ.Overall
1601229785.748166,30.000000,0.000000,3915.384521,4612.307617,4166.666504,4286.666504,3998.974365,4622.563965,3975.384521,3905.641113,4347.692383,4034.871826,4248.717773,4150.769043,4112.820313,4011.281982,0.000000,4.000000,,,,0.000000,2.000000,4.000000,4.000000,4.000000,4.000000,4.000000,4.000000,4.000000,4.000000,4.000000,2.000000,4.000000,4.000000,1.000000,41.666668
1601229785.755887,31.000000,0.000000,3908.205078,4598.461426,4164.102539,4275.384766,4001.538574,4624.102539,3984.102539,3898.974365,4343.589844,4038.974365,4244.102539,4152.307617,4107.692383,4005.641113,0.000000,4.000000,,,,0.000000,2.000000,4.000000,4.000000,4.000000,4.000000,4.000000,4.000000,4.000000,4.000000,4.000000,2.000000,4.000000,4.000000,1.000000,41.666668
1601229785.763707,32.000000,0.000000,3906.153809,4583.589844,4152.820313,4257.948730,3995.384521,4613.333496,3975.384521,3887.692383,4326.153809,4016.923096,4230.256348,4148.205078,4084.102539,4004.615479,0.000000,4.000000,,,,0.000000,2.000000,4.000000,4.000000,4.000000,4.000000,4.000000,4.000000,4.000000,4.000000,4.000000,2.000000,4.000000,4.000000,1.000000,41.666668
1601229785.771427,33.000000,0.000000,3906.153809,4591.794922,4150.769043,4262.051270,3992.307617,4614.871582,3976.410156,3888.718018,4317.948730,4008.718018,4229.230957,4145.641113,4087.692383,4007.179443,0.000000,4.000000,,,,0.000000,2.000000,4.000000,4.000000,4.000000,4.000000,4.000000,4.000000,4.000000,4.000000,4.000000,2.000000,4.000000,4.000000,1.000000,41.666668
1601229785.779248,34.000000,0.000000,3914.358887,4606.153809,4163.589844,4285.128418,3998.461426,4627.179688,3992.820557,3892.820557,4321.025879,4022.051270,4235.897461,4152.307617,4107.179688,4005.641113,0.000000,4.000000,,,,0.000000,2.000000,4.000000,4.000000,4.000000,4.000000,4.000000,4.000000,4.000000,4.000000,4.000000,2.000000,4.000000,4.000000,1.000000,41.666668
1601229785.786968,35.000000,0.000000,3922.051270,4605.128418,4170.769043,4291.794922,4002.564209,4628.205078,3991.794922,3884.102539,4314.871582,4021.025635,4233.846191,4153.333496,4104.102539,4005.128174,0.000000,4.000000,,,,0.000000,2.000000,4.000000,4.000000,4.000000,4.000000,4.000000,4.000000,4.000000,4.000000,4.000000,2.000000,4.000000,4.000000,1.000000,41.666668
1601229785.794889,36.000000,0.000000,3921.025635,4602.051270,4171.282227,4283.077148,4004.102539,4620.512695,3976.410156,3876.410156,4308.205078,4012.820557,4232.820313,4155.897461,4102.051270,4008.205078,0.000000,4.000000,,,,0.000000,2.000000,4.000000,4.000000,4.000000,4.000000,4.000000,4.000000,4.000000,4.000000,4.000000,2.000000,4.000000,4.000000,1.000000,41.666668
1601229785.802711,37.000000,0.000000,3922.051270,4614.358887,4172.820313,4286.666504,4008.205078,4616.922852,3970.769287,3882.564209,4313.333496,4015.384521,4241.025879,4165.641113,4112.307617,4010.769287,0.000000,4.000000,,,,0.000000,2.000000,4.000000,4.000000,4.000000,4.000000,4.000000,4.000000,4.000000,4.000000,4.000000,2.000000,4.000000,4.000000,1.000000,41.666668
1601229785.810532,38.000000,0.000000,3929.230713,4626.153809,4174.871582,4296.922852,4009.230713,4615.384766,3969.230713,3887.179443,4316.410156,4018.974365,4243.589844,4170.769043,4110.256348,4012.307617,0.000000,4.000000,,,,0.000000,2.000000,4.000000,4.000000,4.000000,4.000000,4.000000,4.000000,4.000000,4.000000,4.000000,2.000000,4.000000,4.000000,1.000000,41.666668
1601229785.818353,39.000000,0.000000,3927.692383,4623.077148,4173.333496,4291.794922,4004.102539,4613.846191,3965.128174,3887.692383,4321.538574,4022.564209,4241.025879,4168.205078,4109.743652,4013.846191,0.000000,4.000000,,,,0.000000,2.000000,4.000000,4.000000,4.000000,4.000000,4.000000,4.000000,4.000000,4.000000,4.000000,2.000000,4.000000,4.000000,1.000000,41.666668
1601229785.826175,40.000000,0.000000,3918.974365,4613.846191,4170.769043,4278.461426,3999.487061,4611.794922,3969.230713,3895.384521,4338.461426,4035.384521,4245.128418,4161.538574,4119.487305,4013.846191,0.000000,4.000000,,,,0.000000,2.000000,4.000000,4.000000,4.000000,4.000000,4.000000,4.000000,4.000000,4.000000,4.000000,2.000000,4.000000,4.000000,1.000000,41.666668
1601229785.833996,41.000000,0.000000,3915.384521,4609.230957,4170.769043,4278.974121,4000.512939,4610.256348,3972.307617,3898.461426,4346.153809,4040.512939,4249.230957,4158.974121,4115.384766,4010.769287,0.000000,4.000000,,,,0.000000,2.000000,4.000000,4.000000,4.000000,4.000000,4.000000,4.000000,4.000000,4.000000,4.000000,2.000000,4.000000,4.000000,1.000000,41.666668
1601229785.841817,42.000000,0.000000,3913.333252,4606.153809,4168.205078,4283.077148,4001.025635,4612.307617,3966.153809,3893.846191,4337.948730,4036.410156,4245.641113,4158.974121,4108.717773,4010.769287,0.000000,4.000000,,,,0.000000,2.000000,4.000000,4.000000,4.000000,4.000000,4.000000,4.000000,4.000000,4.000000,4.000000,2.000000,4.000000,4.000000,1.000000,41.666668
1601229785.849737,43.000000,0.000000,3909.230713,4604.615234,4166.666504,4269.743652,3995.384521,4608.717773,3961.538574,3890.769287,4332.820313,4034.871826,4238.461426,4153.333496,4109.743652,4008.718018,0.000000,4.000000,,,,0.000000,2.000000,4.000000,4.000000,4.000000,4.000000,4.000000,4.000000,4.000000,4.000000,4.000000,2.000000,4.000000,4.000000,1.000000,41.666668
1601229785.857658,44.000000,0.000000,3909.743652,4607.692383,4164.615234,4268.717773,3993.846191,4608.205078,3968.205078,3891.794922,4334.871582,4032.307617,4233.333496,4148.717773,4102.051270,4001.538574,0.000000,4.000000,,,,0.000000,2.000000,4.000000,4.000000,4.000000,4.000000,4.000000,4.000000,4.000000,4.000000,4.000000,2.000000,4.000000,4.000000,1.000000,41.666668
1601229785.865478,45.000000,0.000000,3912.820557,4611.794922,4162.051270,4287.179688,3999.487061,4617.436035,3977.435791,3887.692383,4334.871582,4030.256348,4234.358887,4153.846191,4097.948730,4003.076904,0.000000,4.000000,,,,0.000000,2.000000,4.000000,4.000000,4.000000,4.000000,4.000000,4.000000,4.000000,4.000000,4.000000,2.000000,4.000000,4.000000,1.000000,41.666668
1601229785.873398,46.000000,0.000000,3911.281982,4610.256348,4163.589844,4278.461426,3995.897461,4614.871582,3976.923096,3877.948730,4327.179688,4027.179443,4241.538574,4155.384766,4105.128418,4010.769287,0.000000,4.000000,,,,0.000000,2.000000,4.000000,4.000000,4.000000,4.000000,4.000000,4.000000,4.000000,4.000000,4.000000,2.000000,4.000000,4.000000,1.000000,41.666668
1601229785.881219,47.000000,0.000000,3913.846191,4605.641113,4168.205078,4257.948730,3992.307617,4607.179688,3973.333252,3877.435791,4323.077148,4028.718018,4245.128418,4160.512695,4115.897461,4011.281982,0.000000,4.000000,,,,0.000000,2.000000,4.000000,4.000000,4.000000,4.000000,4.000000,4.000000,4.000000,4.000000,4.000000,2.000000,4.000000,4.000000,1.000000,41.666668
1601229785.888939,48.000000,0.000000,3927.179443,4608.205078,4170.256348,4274.358887,3994.871826,4617.948730,3977.948730,3888.205078,4330.769043,4036.923096,4248.205078,4174.358887,4125.641113,4010.256348,0.000000,4.000000,,,,0.000000,2.000000,4.000000,4.000000,4.000000,4.000000,4.000000,4.000000,4.000000,4.000000,4.000000,2.000000,4.000000,4.000000,1.000000,41.666668
1601229785.896760,49.000000,0.000000,3931.794922,4624.615234,4175.897461,4298.974121,3995.897461,4628.717773,3980.512939,3894.358887,4336.410156,4037.948730,4251.282227,4178.974121,4125.641113,4016.410156,0.000000,4.000000,,,,0.000000,2.000000,4.000000,4.000000,4.000000,4.000000,4.000000,4.000000,4.000000,4.000000,4.000000,2.000000,4.000000,4.000000,1.000000,41.666668
1601229785.904480,50.000000,0.000000,3929.230713,4636.922852,4187.692383,4296.922852,3997.948730,4616.410156,3972.307617,3890.769287,4329.230957,4033.333252,4251.282227,4176.410156,4118.974121,4028.205078,0.000000,4.000000,,,,0.000000,2.000000,4.000000,4.000000,4.000000,4.000000,4.000000,4.000000,4.000000,4.000000,4.000000,2.000000,4.000000,4.000000,1.000000,41.666668
1601229785.912300,51.000000,0.000000,3929.230713,4628.205078,4193.333496,4288.205078,4000.000000,4602.051270,3963.589844,3889.230713,4321.025879,4028.718018,4247.692383,4173.333496,4112.307617,4037.948730,0.000000,4.000000,,,,0.000000,2.000000,4.000000,4.000000,4.000000,4.000000,4.000000,4.000000,4.000000,4.000000,4.000000,2.000000,4.000000,4.000000,1.000000,41.666668
1601229785.920021,52.000000,0.000000,3922.051270,4622.051270,4190.769043,4286.666504,4000.512939,4606.666504,3968.205078,3891.794922,4326.153809,4026.666748,4244.615234,4170.256348,4105.641113,4035.384521,0.000000,4.000000,,,,0.000000,2.000000,4.000000,4.000000,4.000000,4.000000,4.000000,4.000000,4.000000,4.000000,4.000000,2.000000,4.000000,4.000000,1.000000,41.666668
1601229785.927841,53.000000,0.000000,3910.256348,4622.563965,4186.666504,4278.974121,3997.435791,4613.333496,3976.410156,3895.384521,4337.948730,4034.871826,4245.641113,4169.230957,4104.102539,4025.128174,0.000000,4.000000,,,,0.000000,2.000000,4.000000,4.000000,4.000000,4.000000,4.000000,4.000000,4.000000,4.000000,4.000000,2.000000,4.000000,4.000000,1.000000,41.666668
1601229785.935562,54.000000,0.000000,3906.666748,4610.769043,4180.512695,4269.743652,3993.846191,4614.871582,3981.025635,3898.461426,4342.051270,4047.692383,4247.692383,4168.205078,4113.846191,4023.589844,0.000000,4.000000,,,,0.000000,2.000000,4.000000,4.000000,4.000000,4.000000,4.000000,4.000000,4.000000,4.000000,4.000000,2.000000,4.000000,4.000000,1.000000,41.666668
1601229785.943382,55.000000,0.000000,3911.281982,4604.615234,4182.563965,4266.666504,3997.948730,4620.000000,3986.666748,3898.974365,4343.589844,4049.230713,4249.230957,4163.077148,4121.538574,4024.615479,0.000000,4.000000,,,,0.000000,2.000000,4.000000,4.000000,4.000000,4.000000,4.000000,4.000000,4.000000,4.000000,4.000000,2.000000,4.000000,4.000000,1.000000,41.666668
1601229785.951103,56.000000,0.000000,3912.820557,4615.384766,4185.128418,4265.641113,4002.051270,4624.102539,3990.256348,3896.410156,4346.153809,4044.102539,4248.205078,4158.974121,4121.538574,4017.948730,0.000000,4.000000,,,,0.000000,2.000000,4.000000,4.000000,4.000000,4.000000,4.000000,4.000000,4.000000,4.000000,4.000000,2.000000,4.000000,4.000000,1.000000,41.666668
1601229785.958923,57.000000,0.000000,3911.281982,4613.846191,4175.384766,4262.563965,3996.923096,4618.974121,3984.615479,3889.230713,4340.512695,4045.128174,4244.102539,4156.410156,4120.512695,4006.666748,0.000000,4.000000,,,,0.000000,2.000000,4.000000,4.000000,4.000000,4.000000,4.000000,4.000000,4.000000,4.000000,4.000000,2.000000,4.000000,4.000000,1.000000,41.666668
1601229785.966643,58.000000,0.000000,3910.256348,4602.051270,4166.666504,4260.512695,3994.358887,4612.820313,3975.897461,3880.512939,4328.205078,4041.538574,4243.589844,4157.948730,4118.974121,4004.102539,0.000000,4.000000,,,,0.000000,2.000000,4.000000,4.000000,4.000000,4.000000,4.000000,4.000000,4.000000,4.000000,4.000000,2.000000,4.000000,4.000000,1.000000,41.666668
1601229785.974564,59.000000,0.000000,3912.307617,4611.282227,4167.692383,4265.128418,3995.897461,4612.307617,3970.256348,3878.974365,4317.436035,4029.230713,4241.025879,4158.461426,4115.897461,4009.743652,0.000000,4.000000,,,,0.000000,2.000000,4.000000,4.000000,4.000000,4.000000,4.000000,4.000000,4.000000,4.000000,4.000000,2.000000,4.000000,4.000000,1.000000,41.666668
1601229785.982384,60.000000,0.000000,3914.358887,4622.051270,4174.871582,4263.589844,3991.794922,4608.205078,3964.615479,3878.974365,4311.282227,4021.025635,4237.948730,4157.948730,4109.743652,4008.205078,0.000000,4.000000,,,,0.000000,2.000000,4.000000,4.000000,4.000000,4.000000,4.000000,4.000000,4.000000,4.000000,4.000000,2.000000,4.000000,4.000000,1.000000,41.666668
1601229785.990304,61.000000,0.000000,3917.435791,4620.000000,4183.077148,4264.102539,3993.333252,4603.077148,3962.564209,3878.974365,4316.922852,4025.641113,4241.025879,4165.128418,4109.230957,4011.281982,0.000000,4.000000,,,,0.000000,2.000000,4.000000,4.000000,4.000000,4.000000,4.000000,4.000000,4.000000,4.000000,4.000000,2.000000,4.000000,4.000000,1.000000,41.666668
1601229785.998125,62.000000,0.000000,3924.102539,4622.563965,4187.179688,4274.358887,3996.923096,4603.077148,3966.666748,3882.564209,4325.128418,4027.692383,4240.512695,4167.179688,4106.666504,4030.256348,0.000000,4.000000,,,,0.000000,2.000000,4.000000,4.000000,4.000000,4.000000,4.000000,4.000000,4.000000,4.000000,4.000000,2.000000,4.000000,4.000000,1.000000,41.666668
1601229786.006045,63.000000,0.000000,3923.589844,4628.205078,4184.615234,4281.538574,3991.794922,4607.179688,3973.333252,3884.102539,4321.538574,4015.897461,4230.256348,4155.384766,4092.307617,4045.128174,0.000000,4.000000,,,,0.000000,2.000000,4.000000,4.000000,4.000000,4.000000,4.000000,4.000000,4.000000,4.000000,4.000000,2.000000,4.000000,4.000000,1.000000,41.666668
1601229786.013865,64.000000,0.000000,3917.948730,4626.666504,4185.128418,4278.461426,3991.281982,4615.384766,3981.025635,3882.051270,4321.025879,4012.820557,4230.769043,4153.846191,4092.307617,4040.000000,383.000000,4.000000,,,,0.000000,2.000000,4.000000,4.000000,4.000000,4.000000,4.000000,4.000000,4.000000,4.000000,4.000000,2.000000,4.000000,4.000000,1.000000,41.666668
1601229786.021786,65.000000,0.000000,3920.000000,4621.538574,4188.717773,4275.897461,3996.923096,4620.512695,3985.128174,3887.692383,4330.769043,4027.179443,4243.589844,4166.666504,4111.282227,4024.102539,435.000000,4.000000,,,,0.000000,2.000000,4.000000,4.000000,4.000000,4.000000,4.000000,4.000000,4.000000,4.000000,4.000000,2.000000,4.000000,4.000000,1.000000,41.666668
1601229786.029606,66.000000,0.000000,3926.666748,4623.589844,4188.205078,4283.077148,3997.948730,4616.922852,3981.538574,3896.410156,4336.410156,4036.410156,4249.743652,4171.282227,4116.922852,4012.820557,383.000000,4.000000,,,,0.000000,2.000000,4.000000,4.000000,4.000000,4.000000,4.000000,4.000000,4.000000,4.000000,4.000000,2.000000,4.000000,4.000000,1.000000,41.666668
1601229786.037426,67.000000,0.000000,3922.051270,4627.692383,4183.589844,4282.563965,3998.461426,4614.871582,3978.974365,3895.384521,4337.436035,4035.897461,4245.641113,4165.641113,4111.282227,4010.769287,431.000000,4.000000,,,,0.000000,2.000000,4.000000,4.000000,4.000000,4.000000,4.000000,4.000000,4.000000,4.000000,4.000000,2.000000,4.000000,4.000000,1.000000,41.666668
1601229786.045247,68.000000,0.000000,3911.281982,4624.615234,4178.461426,4273.846191,3997.948730,4621.538574,3982.564209,3890.256348,4338.974121,4034.871826,4239.487305,4157.436035,4109.230957,4012.307617,458.000000,4.000000,,,,0.000000,2.000000,4.000000,4.000000,4.000000,4.000000,4.000000,4.000000,4.000000,4.000000,4.000000,2.000000,4.000000,4.000000,1.000000,41.666668
1601229786.052967,69.000000,0.000000,3910.769287,4625.641113,4175.384766,4270.769043,3996.410156,4621.538574,3986.666748,3889.743652,4338.974121,4035.384521,4233.846191,4152.307617,4105.641113,4009.743652,432.000000,4.000000,,,,0.000000,2.000000,4.000000,4.000000,4.000000,4.000000,4.000000,4.000000,4.000000,4.000000,4.000000,2.000000,4.000000,4.000000,1.000000,41.666668
1601229786.060787,70.000000,0.000000,3918.461426,4632.820313,4175.384766,4273.333496,4001.538574,4617.948730,3984.102539,3888.718018,4332.307617,4029.230713,4231.794922,4151.794922,4101.025879,4007.692383,441.000000,4.000000,,,,0.000000,2.000000,4.000000,4.000000,4.000000,4.000000,4.000000,4.000000,4.000000,4.000000,4.000000,2.000000,4.000000,4.000000,1.000000,41.666668
1601229786.068508,71.000000,0.000000,3924.102539,4632.820313,4178.974121,4276.410156,4009.230713,4622.051270,3982.564209,3888.718018,4328.205078,4027.692383,4238.461426,4153.846191,4105.128418,4012.307617,348.000000,4.000000,,,,0.000000,2.000000,4.000000,4.000000,4.000000,4.000000,4.000000,4.000000,4.000000,4.000000,4.000000,2.000000,4.000000,4.000000,1.000000,41.666668
1601229786.076328,72.000000,0.000000,3917.948730,4624.102539,4183.589844,4275.897461,4004.102539,4627.179688,3984.102539,3889.230713,4332.307617,4033.846191,4244.615234,4157.436035,4112.307617,4013.846191,406.000000,4.000000,,,,0.000000,2.000000,4.000000,4.000000,4.000000,4.000000,4.000000,4.000000,4.000000,4.000000,4.000000,2.000000,4.000000,4.000000,1.000000,41.666668
1601229786.084049,73.000000,0.000000,3911.794922,4620.000000,4185.128418,4265.641113,3991.281982,4621.025879,3978.974365,3887.692383,4331.794922,4031.281982,4238.461426,4155.384766,4106.153809,4004.615479,404.000000,4.000000,,,,0.000000,2.000000,4.000000,4.000000,4.000000,4.000000,4.000000,4.000000,4.000000,4.000000,4.000000,2.000000,4.000000,4.000000,1.000000,41.666668
1601229786.091869,74.000000,0.000000,3912.307617,4623.077148,4181.025879,4258.974121,3989.743652,4609.230957,3972.307617,3884.615479,4321.538574,4015.384521,4227.179688,4143.589844,4085.641113,3998.974365,426.000000,4.000000,,,,0.000000,2.000000,4.000000,4.000000,4.000000,4.000000,4.000000,4.000000,4.000000,4.000000,4.000000,2.000000,4.000000,4.000000,1.000000,41.666668
1601229786.099590,75.000000,0.000000,3912.820557,4625.641113,4176.922852,4268.717773,3997.435791,4604.615234,3971.794922,3879.487061,4311.794922,4006.153809,4224.615234,4138.461426,4075.384521,4003.076904,49.000000,4.000000,,,,0.000000,2.000000,4.000000,4.000000,4.000000,4.000000,4.000000,4.000000,4.000000,4.000000,4.000000,2.000000,4.000000,4.000000,1.000000,41.666668
1601229786.107410,76.000000,0.000000,3913.846191,4630.256348,4176.922852,4280.512695,3998.974365,4611.794922,3976.410156,3878.461426,4314.871582,4013.333252,4230.769043,4149.743652,4088.205078,4003.589844,229.000000,4.000000,,,,0.000000,2.000000,4.000000,4.000000,4.000000,4.000000,4.000000,4.000000,4.000000,4.000000,4.000000,2.000000,4.000000,4.000000,1.000000,41.666668
1601229786.115130,77.000000,0.000000,3912.820557,4632.820313,4182.563965,4278.461426,3994.358887,4618.974121,3982.564209,3886.153809,4322.563965,4018.974365,4234.871582,4156.922852,4096.922852,4003.076904,350.000000,4.000000,,,,0.000000,2.000000,4.000000,4.000000,4.000000,4.000000,4.000000,4.000000,4.000000,4.000000,4.000000,2.000000,4.000000,4.000000,1.000000,41.666668
1601229786.122951,78.000000,0.000000,3913.333252,4628.717773,4183.077148,4267.692383,3995.384521,4613.846191,3982.051270,3888.205078,4322.051270,4017.435791,4232.307617,4152.307617,4090.769287,4006.153809,426.000000,4.000000,,,,0.000000,2.000000,4.000000,4.000000,4.000000,4.000000,4.000000,4.000000,4.000000,4.000000,4.000000,2.000000,4.000000,4.000000,1.000000,41.666668
1601229786.130671,79.000000,0.000000,3917.948730,4620.512695,4174.871582,4265.128418,3999.487061,4608.205078,3976.410156,3883.589844,4320.512695,4018.974365,4232.820313,4151.282227,4092.820557,4005.128174,49.000000,4.000000,,,,0.000000,2.000000,4.000000,4.000000,4.000000,4.000000,4.000000,4.000000,4.000000,4.000000,4.000000,2.000000,4.000000,4.000000,1.000000,41.666668
1601229786.138592,80.000000,0.000000,3919.487061,4618.461426,4170.769043,4273.333496,4000.000000,4612.307617,3982.051270,3889.230713,4329.743652,4029.743652,4243.077148,4154.871582,4104.615234,4005.128174,229.000000,4.000000,,,,0.000000,2.000000,4.000000,4.000000,4.000000,4.000000,4.000000,4.000000,4.000000,4.000000,4.000000,2.000000,4.000000,4.000000,1.000000,41.666668
1601229786.146412,81.000000,0.000000,3912.820557,4625.128418,4174.871582,4274.871582,3999.487061,4615.897461,3990.256348,3890.256348,4335.384766,4030.769287,4243.589844,4153.846191,4100.000000,4006.153809,350.000000,4.000000,,,,0.000000,2.000000,4.000000,4.000000,4.000000,4.000000,4.000000,4.000000,4.000000,4.000000,4.000000,2.000000,4.000000,4.000000,1.000000,41.666668
1601229786.154332,82.000000,0.000000,3912.307617,4626.666504,4182.563965,4267.179688,3998.974365,4617.436035,3985.641113,3884.102539,4329.743652,4024.102539,4231.282227,4151.282227,4087.692383,4001.025635,426.000000,4.000000,,,,0.000000,2.000000,4.000000,4.000000,4.000000,4.000000,4.000000,4.000000,4.000000,4.000000,4.000000,2.000000,4.000000,4.000000,1.000000,41.666668
1601229786.162153,83.000000,0.000000,3915.897461,4625.128418,4183.077148,4270.256348,3997.948730,4622.051270,3985.128174,3892.820557,4338.461426,4029.230713,4231.282227,4152.820313,4091.794922,4002.564209,49.000000,4.000000,,,,0.000000,2.000000,4.000000,4.000000,4.000000,4.000000,4.000000,4.000000,4.000000,4.000000,4.000000,2.000000,4.000000,4.000000,1.000000,41.666668
1601229786.170073,84.000000,0.000000,3912.820557,4627.179688,4175.897461,4273.333496,3995.897461,4620.000000,3987.692383,3903.076904,4352.307617,4038.461426,4242.051270,4154.871582,4098.461426,4007.692383,229.000000,4.000000,,,,0.000000,2.000000,4.000000,4.000000,4.000000,4.000000,4.000000,4.000000,4.000000,4.000000,4.000000,2.000000,4.000000,4.000000,1.000000,41.666668
1601229786.177893,85.000000,0.000000,3910.256348,4619.487305,4170.256348,4261.025879,3993.846191,4610.769043,3980.512939,3899.487061,4348.205078,4042.051270,4240.512695,4155.897461,4097.948730,4004.102539,350.000000,4.000000,,,,0.000000,2.000000,4.000000,4.000000,4.000000,4.000000,4.000000,4.000000,4.000000,4.000000,4.000000,2.000000,4.000000,4.000000,1.000000,41.666668
1601229786.185813,86.000000,0.000000,3905.128174,4603.077148,4167.179688,4252.307617,3990.256348,4609.230957,3976.923096,3896.410156,4341.538574,4039.487061,4233.333496,4152.820313,4102.563965,4003.076904,426.000000,4.000000,,,,0.000000,2.000000,4.000000,4.000000,4.000000,4.000000,4.000000,4.000000,4.000000,4.000000,4.000000,2.000000,4.000000,4.000000,1.000000,41.666668
1601229786.193634,87.000000,0.000000,3895.384521,4598.974121,4166.666504,4250.256348,3984.102539,4609.743652,3978.974365,3891.794922,4333.846191,4025.128174,4231.282227,4141.025879,4093.846191,4006.666748,49.000000,4.000000,,,,0.000000,2.000000,4.000000,4.000000,4.000000,4.000000,4.000000,4.000000,4.000000,4.000000,4.000000,2.000000,4.000000,4.000000,1.000000,41.666668
1601229786.201554,88.000000,0.000000,3898.461426,4603.077148,4167.692383,4249.743652,3981.538574,4602.051270,3972.820557,3877.948730,4314.871582,4008.718018,4228.205078,4135.897461,4071.794922,4001.538574,229.000000,4.000000,,,,0.000000,2.000000,4.000000,4.000000,4.000000,4.000000,4.000000,4.000000,4.000000,4.000000,4.000000,2.000000,4.000000,4.000000,1.000000,41.666668
1601229786.209374,89.000000,0.000000,3911.281982,4602.051270,4170.769043,4254.871582,3985.128174,4597.436035,3967.692383,3874.871826,4309.743652,4007.692383,4228.717773,4146.666504,4075.384521,3996.923096,350.000000,4.000000,,,,0.000000,2.000000,4.000000,4.000000,4.000000,4.000000,4.000000,4.000000,4.000000,4.000000,4.000000,2.000000,4.000000,4.000000,1.000000,41.666668
1601229786.217295,90.000000,0.000000,3912.820557,4605.128418,4170.769043,4258.974121,3987.179443,4605.128418,3975.384521,3883.589844,4325.641113,4021.025635,4233.846191,4156.410156,4099.487305,4004.615479,426.000000,4.000000,,,,0.000000,2.000000,4.000000,4.000000,4.000000,4.000000,4.000000,4.000000,4.000000,4.000000,4.000000,2.000000,4.000000,4.000000,1.000000,41.666668
1601229786.225115,91.000000,0.000000,3907.692383,4613.333496,4167.692383,4255.384766,3985.128174,4603.077148,3973.333252,3883.589844,4326.666504,4027.692383,4235.384766,4152.307617,4101.538574,4009.230713,49.000000,4.000000,,,,0.000000,2.000000,4.000000,4.000000,4.000000,4.000000,4.000000,4.000000,4.000000,4.000000,4.000000,2.000000,4.000000,4.000000,1.000000,41.666668
1601229786.232836,92.000000,0.000000,3917.435791,4617.436035,4173.333496,4253.846191,3987.179443,4596.922852,3964.615479,3880.000000,4324.102539,4030.769287,4238.461426,4155.384766,4098.461426,4006.666748,229.000000,4.000000,,,,0.000000,2.000000,4.000000,4.000000,4.000000,4.000000,4.000000,4.000000,4.000000,4.000000,4.000000,2.000000,4.000000,4.000000,1.000000,41.666668
1601229786.240656,93.000000,0.000000,3927.179443,4618.974121,4186.666504,4262.563965,3995.384521,4611.794922,3974.358887,3891.794922,4346.666504,4042.564209,4250.769043,4168.205078,4114.871582,4008.718018,350.000000,4.000000,,,,0.000000,2.000000,4.000000,4.000000,4.000000,4.000000,4.000000,4.000000,4.000000,4.000000,4.000000,2.000000,4.000000,4.000000,1.000000,41.666668
1601229786.248376,94.000000,0.000000,3917.948730,4614.358887,4184.615234,4266.666504,3995.384521,4624.615234,3982.564209,3901.538574,4350.769043,4045.128174,4250.256348,4166.153809,4116.922852,4009.743652,426.000000,4.000000,,,,0.000000,2.000000,4.000000,4.000000,4.000000,4.000000,4.000000,4.000000,4.000000,4.000000,4.000000,2.000000,4.000000,4.000000,1.000000,41.666668
1601229786.256297,95.000000,0.000000,3906.666748,4611.794922,4170.769043,4258.461426,3986.153809,4608.717773,3971.794922,3888.205078,4325.128418,4029.743652,4235.384766,4149.743652,4094.871826,4004.615479,49.000000,4.000000,,,,0.000000,2.000000,4.000000,4.000000,4.000000,4.000000,4.000000,4.000000,4.000000,4.000000,4.000000,2.000000,4.000000,4.000000,1.000000,41.666668
1601229786.264118,96.000000,0.000000,3909.230713,4615.897461,4167.692383,4252.307617,3985.641113,4598.461426,3970.256348,3880.000000,4322.051270,4022.564209,4230.769043,4146.666504,4086.153809,4001.025635,229.000000,4.000000,,,,0.000000,2.000000,4.000000,4.000000,4.000000,4.000000,4.000000,4.000000,4.000000,4.000000,4.000000,2.000000,4.000000,4.000000,1.000000,41.666668
1601229786.271938,97.000000,0.000000,3913.846191,4617.436035,4172.820313,4258.461426,3988.718018,4608.717773,3981.025635,3888.205078,4332.820313,4023.076904,4232.820313,4149.230957,4088.718018,4002.051270,350.000000,4.000000,,,,0.000000,2.000000,4.000000,4.000000,4.000000,4.000000,4.000000,4.000000,4.000000,4.000000,4.000000,2.000000,4.000000,4.000000,1.000000,41.666668
1601229786.279659,98.000000,0.000000,3912.307617,4617.948730,4171.282227,4260.000000,3983.589844,4614.871582,3983.589844,3887.692383,4323.077148,4015.384521,4231.794922,4146.666504,4085.128174,4001.025635,426.000000,4.000000,,,,0.000000,2.000000,4.000000,4.000000,4.000000,4.000000,4.000000,4.000000,4.000000,4.000000,4.000000,2.000000,4.000000,4.000000,1.000000,41.666668
1601229786.287479,99.000000,0.000000,3906.153809,4616.410156,4168.205078,4247.692383,3980.512939,4611.794922,3982.564209,3876.923096,4307.179688,4007.692383,4227.692383,4143.589844,4082.051270,3998.461426,49.000000,4.000000,,,,0.000000,2.000000,4.000000,4.000000,4.000000,4.000000,4.000000,4.000000,4.000000,4.000000,4.000000,2.000000,4.000000,4.000000,1.000000,41.666668
1601229786.295199,100.000000,0.000000,3896.923096,4605.128418,4167.179688,4241.025879,3985.128174,4607.179688,3984.615479,3873.333252,4304.102539,4004.615479,4221.538574,4139.487305,4078.461426,3997.435791,229.000000,4.000000,,,,0.000000,2.000000,4.000000,4.000000,4.000000,4.000000,4.000000,4.000000,4.000000,4.000000,4.000000,2.000000,4.000000,4.000000,1.000000,41.666668
1601229786.303020,101.000000,0.000000,3898.461426,4600.000000,4166.153809,4248.717773,3988.205078,4610.769043,3988.718018,3882.564209,4315.897461,4010.769287,4221.538574,4142.051270,4077.435791,3997.435791,350.000000,4.000000,,,,0.000000,2.000000,4.000000,4.000000,4.000000,4.000000,4.000000,4.000000,4.000000,4.000000,4.000000,2.000000,4.000000,4.000000,1.000000,41.666668
1601229786.310740,102.000000,0.000000,3910.769287,4614.871582,4167.692383,4253.333496,3989.230713,4620.512695,3990.256348,3890.256348,4335.384766,4024.615479,4230.769043,4150.256348,4087.179443,3998.461426,426.000000,4.000000,,,,0.000000,2.000000,4.000000,4.000000,4.000000,4.000000,4.000000,4.000000,4.000000,4.000000,4.000000,2.000000,4.000000,4.000000,1.000000,41.666668
1601229786.318561,103.000000,0.000000,3923.076904,4635.384766,4176.922852,4261.025879,3995.897461,4621.025879,3988.205078,3893.846191,4349.230957,4037.435791,4238.974121,4156.410156,4096.922852,4003.589844,49.000000,4.000000,,,,0.000000,2.000000,4.000000,4.000000,4.000000,4.000000,4.000000,4.000000,4.000000,4.000000,4.000000,2.000000,4.000000,4.000000,1.000000,41.666668
1601229786.326281,104.000000,0.000000,3928.718018,4642.563965,4187.179688,4272.307617,3996.923096,4613.333496,3985.641113,3899.487061,4357.948730,4052.307617,4243.077148,4167.692383,4106.666504,4009.743652,229.000000,4.000000,,,,0.000000,2.000000,4.000000,4.000000,4.000000,4.000000,4.000000,4.000000,4.000000,4.000000,4.000000,2.000000,4.000000,4.000000,1.000000,41.666668
1601229786.334201,105.000000,0.000000,3923.589844,4635.384766,4187.692383,4269.743652,3992.307617,4611.794922,3983.589844,3900.512939,4361.538574,4055.384521,4247.179688,4172.820313,4111.282227,4005.641113,350.000000,4.000000,,,,0.000000,2.000000,4.000000,4.000000,4.000000,4.000000,4.000000,4.000000,4.000000,4.000000,4.000000,2.000000,4.000000,4.000000,1.000000,41.666668
1601229786.342022,106.000000,0.000000,3912.820557,4624.615234,4181.025879,4257.436035,3989.230713,4614.358887,3985.128174,3895.384521,4348.717773,4039.487061,4242.051270,4159.487305,4100.512695,3997.948730,426.000000,4.000000,,,,0.000000,2.000000,4.000000,4.000000,4.000000,4.000000,4.000000,4.000000,4.000000,4.000000,4.000000,2.000000,4.000000,4.000000,1.000000,41.666668
1601229786.349942,107.000000,0.000000,3907.692383,4616.410156,4181.538574,4250.256348,3985.641113,4613.846191,3990.769287,3891.281982,4332.820313,4030.769287,4234.871582,4149.743652,4090.256348,4000.000000,49.000000,4.000000,,,,0.000000,2.000000,4.000000,4.000000,4.000000,4.000000,4.000000,4.000000,4.000000,4.000000,4.000000,2.000000,4.000000,4.000000,1.000000,41.666668
1601229786.357762,108.000000,0.000000,3911.281982,4616.410156,4186.666504,4250.256348,3985.128174,4618.974121,3997.435791,3891.281982,4329.743652,4032.307617,4233.333496,4157.948730,4088.205078,4001.025635,229.000000,4.000000,,,,0.000000,2.000000,4.000000,4.000000,4.000000,4.000000,4.000000,4.000000,4.000000,4.000000,4.000000,2.000000,4.000000,4.000000,1.000000,41.666668
1601229786.365683,109.000000,0.000000,3909.230713,4617.436035,4179.487305,4254.871582,3987.692383,4614.871582,3993.333252,3882.051270,4318.461426,4013.333252,4223.589844,4152.820313,4075.897461,3994.358887,350.000000,4.000000,,,,0.000000,2.000000,4.000000,4.000000,4.000000,4.000000,4.000000,4.000000,4.000000,4.000000,4.000000,2.000000,4.000000,4.000000,1.000000,41.666668
1601229786.373503,110.000000,0.000000,3903.589844,4612.820313,4167.179688,4256.410156,3986.153809,4596.922852,3982.564209,3867.179443,4292.820313,3993.333252,4211.794922,4134.871582,4065.641113,3991.794922,426.000000,4.000000,,,,0.000000,2.000000,4.000000,4.000000,4.000000,4.000000,4.000000,4.000000,4.000000,4.000000,4.000000,2.000000,4.000000,4.000000,1.000000,41.666668
1601229786.381423,111.000000,0.000000,3904.102539,4614.358887,4172.307617,4255.384766,3985.128174,4597.948730,3975.384521,3864.102539,4287.692383,4001.538574,4216.922852,4137.436035,4071.281982,3996.410156,49.000000,4.000000,,,,0.000000,2.000000,4.000000,4.000000,4.000000,4.000000,4.000000,4.000000,4.000000,4.000000,4.000000,2.000000,4.000000,4.000000,1.000000,41.666668
1601229786.389244,112.000000,0.000000,3911.281982,4627.179688,4186.666504,4263.077148,3993.846191,4613.333496,3973.846191,3874.358887,4312.820313,4022.564209,4229.230957,4152.820313,4083.589844,3996.923096,229.000000,4.000000,,,,0.000000,2.000000,4.000000,4.000000,4.000000,4.000000,4.000000,4.000000,4.000000,4.000000,4.000000,2.000000,4.000000,4.000000,1.000000,41.666668
1601229786.397164,113.000000,0.000000,3920.512939,4634.871582,4187.179688,4270.256348,4003.076904,4611.794922,3976.410156,3887.692383,4332.820313,4034.358887,4235.384766,4159.487305,4095.384521,4000.000000,350.000000,4.000000,,,,0.000000,2.000000,4.000000,4.000000,4.000000,4.000000,4.000000,4.000000,4.000000,4.000000,4.000000,2.000000,4.000000,4.000000,1.000000,41.666668
1601229786.404984,114.000000,0.000000,3925.128174,4628.717773,4183.589844,4265.128418,4000.512939,4605.128418,3978.974365,3893.333252,4337.948730,4041.025635,4240.512695,4164.615234,4100.000000,4015.384521,426.000000,4.000000,,,,0.000000,2.000000,4.000000,4.000000,4.000000,4.000000,4.000000,4.000000,4.000000,4.000000,4.000000,2.000000,4.000000,4.000000,1.000000,41.666668
1601229786.412705,115.000000,0.000000,3919.487061,4623.589844,4187.692383,4261.025879,3992.820557,4615.384766,3980.512939,3899.487061,4348.205078,4049.230713,4240.000000,4170.769043,4095.897461,4027.692383,49.000000,4.000000,,,,0.000000,2.000000,4.000000,4.000000,4.000000,4.000000,4.000000,4.000000,4.000000,4.000000,4.000000,2.000000,4.000000,4.000000,1.000000,41.666668
1601229786.420525,116.000000,0.000000,3910.769287,4628.205078,4184.102539,4264.102539,3993.333252,4627.179688,3987.179443,3907.179443,4361.538574,4053.846191,4233.846191,4166.666504,4096.410156,4025.128174,229.000000,4.000000,,,,0.000000,2.000000,4.000000,4.000000,4.000000,4.000000,4.000000,4.000000,4.000000,4.000000,4.000000,2.000000,4.000000,4.000000,1.000000,41.666668
1601229786.428246,117.000000,0.000000,3909.743652,4630.256348,4171.794922,4260.512695,3998.461426,4629.230957,4000.512939,3905.128174,4354.871582,4045.641113,4234.358887,4155.897461,4093.846191,4021.025635,350.000000,4.000000,,,,0.000000,2.000000,4.000000,4.000000,4.000000,4.000000,4.000000,4.000000,4.000000,4.000000,4.000000,2.000000,4.000000,4.000000,1.000000,41.666668
1601229786.436066,118.000000,0.000000,3905.641113,4618.461426,4168.717773,4246.666504,3994.358887,4628.205078,4005.641113,3896.410156,4332.307617,4028.205078,4230.769043,4145.128418,4077.948730,4016.410156,426.000000,4.000000,,,,0.000000,2.000000,4.000000,4.000000,4.000000,4.000000,4.000000,4.000000,4.000000,4.000000,4.000000,2.000000,4.000000,4.000000,1.000000,41.666668
1601229786.443786,119.000000,0.000000,3894.871826,4604.615234,4170.769043,4243.077148,3988.718018,4622.563965,3995.384521,3885.641113,4316.922852,4012.820557,4219.487305,4136.410156,4063.589844,4002.051270,49.000000,4.000000,,,,0.000000,2.000000,4.000000,4.000000,4.000000,4.000000,4.000000,4.000000,4.000000,4.000000,4.000000,2.000000,4.000000,4.000000,1.000000,41.666668
1601229786.451607,120.000000,0.000000,3896.410156,4605.641113,4165.128418,4252.820313,3988.718018,4612.820313,3985.641113,3876.923096,4312.820313,4006.153809,4212.820313,4134.871582,4062.564209,3991.281982,229.000000,4.000000,,,,0.000000,2.000000,4.000000,4.000000,4.000000,4.000000,4.000000,4.000000,4.000000,4.000000,4.000000,2.000000,4.000000,4.000000,1.000000,41.666668
1601229786.459327,121.000000,0.000000,3906.666748,4612.307617,4167.179688,4256.410156,3987.692383,4608.717773,3983.589844,3876.410156,4308.717773,4007.179443,4216.410156,4138.461426,4069.743652,3996.410156,350.000000,4.000000,,,,0.000000,2.000000,4.000000,4.000000,4.000000,4.000000,4.000000,4.000000,4.000000,4.000000,4.000000,2.000000,4.000000,4.000000,1.000000,41.666668
1601229786.467148,122.000000,0.000000,3910.769287,4620.000000,4177.436035,4262.563965,3992.307617,4611.794922,3984.615479,3881.025635,4308.205078,4008.718018,4224.102539,4140.512695,4080.000000,4002.051270,426.000000,4.000000,,,,0.000000,2.000000,4.000000,4.000000,4.000000,4.000000,4.000000,4.000000,4.000000,4.000000,4.000000,2.000000,4.000000,4.000000,1.000000,41.666668
1601229786.474868,123.000000,0.000000,3910.769287,4626.666504,4177.436035,4276.922852,4001.025635,4614.871582,3982.051270,3882.051270,4312.820313,4008.718018,4226.666504,4141.538574,4083.076904,4002.564209,49.000000,4.000000,,,,0.000000,2.000000,4.000000,4.000000,4.000000,4.000000,4.000000,4.000000,4.000000,4.000000,4.000000,2.000000,4.000000,4.000000,1.000000,41.666668
1601229786.482688,124.000000,0.000000,3912.307617,4617.948730,4173.846191,4268.717773,3994.358887,4610.256348,3974.358887,3883.076904,4312.307617,4006.153809,4220.512695,4139.487305,4074.358887,4003.076904,229.000000,4.000000,,,,0.000000,2.000000,4.000000,4.000000,4.000000,4.000000,4.000000,4.000000,4.000000,4.000000,4.000000,2.000000,4.000000,4.000000,1.000000,41.666668
1601229786.490409,125.000000,0.000000,3914.358887,4611.794922,4176.410156,4259.487305,3989.743652,4610.256348,3974.871826,3890.256348,4311.794922,4008.205078,4217.436035,4138.461426,4072.307617,4004.615479,350.000000,4.000000,,,,0.000000,2.000000,4.000000,4.000000,4.000000,4.000000,4.000000,4.000000,4.000000,4.000000,4.000000,2.000000,4.000000,4.000000,1.000000,41.666668
1601229786.498329,126.000000,0.000000,3912.820557,4630.769043,4170.769043,4281.025879,4003.076904,4618.461426,3986.666748,3893.333252,4320.000000,4008.718018,4220.512695,4138.461426,4076.923096,4005.128174,426.000000,4.000000,,,,0.000000,2.000000,4.000000,4.000000,4.000000,4.000000,4.000000,4.000000,4.000000,4.000000,4.000000,2.000000,4.000000,4.000000,1.000000,41.666668
1601229786.506150,127.000000,0.000000,3912.307617,4644.102539,4167.179688,4292.307617,4005.128174,4622.563965,3994.358887,3890.256348,4323.077148,4003.076904,4218.974121,4138.461426,4072.307617,4004.615479,49.000000,4.000000,,,,0.000000,2.000000,4.000000,4.000000,4.000000,4.000000,4.000000,4.000000,4.000000,4.000000,4.000000,2.000000,4.000000,4.000000,1.000000,41.666668
1601229786.514070,128.000000,0.000000,3917.948730,4629.230957,4176.410156,4278.461426,3993.333252,4625.128418,3992.307617,3890.769287,4321.538574,4006.153809,4221.025879,4141.025879,4073.846191,4008.718018,229.000000,4.000000,,,,0.000000,2.000000,4.000000,4.000000,4.000000,4.000000,4.000000,4.000000,4.000000,4.000000,4.000000,2.000000,4.000000,4.000000,1.000000,41.666668
1601229786.521890,0.000000,0.000000,3917.948730,4621.538574,4176.410156,4277.436035,3992.820557,4625.128418,3986.666748,3887.179443,4315.384766,4009.230713,4227.692383,4142.051270,4082.564209,4011.794922,383.000000,4.000000,,,,0.000000,2.000000,4.000000,4.000000,4.000000,4.000000,4.000000,4.000000,4.000000,4.000000,4.000000,2.000000,4.000000,4.000000,1.000000,41.666668
1601229786.529810,1.000000,0.000000,3910.769287,4631.282227,4169.743652,4284.102539,3997.435791,4620.000000,3978.974365,3877.948730,4304.102539,4001.538574,4224.102539,4137.436035,4077.948730,4006.153809,435.000000,4.000000,,,,0.000000,2.000000,4.000000,4.000000,4.000000,4.000000,4.000000,4.000000,4.000000,4.000000,4.000000,2.000000,4.000000,4.000000,1.000000,41.666668
1601229786.537631,2.000000,0.000000,3909.743652,4634.358887,4171.282227,4281.538574,3995.384521,4612.307617,3971.794922,3872.307617,4299.487305,3993.846191,4214.358887,4131.794922,4060.000000,4000.000000,383.000000,4.000000,,,,0.000000,2.000000,4.000000,4.000000,4.000000,4.000000,4.000000,4.000000,4.000000,4.000000,4.000000,2.000000,4.000000,4.000000,1.000000,41.666668
1601229786.545551,3.000000,0.000000,3914.358887,4634.358887,4172.820313,4282.051270,3992.820557,4610.256348,3969.743652,3876.410156,4306.153809,3996.923096,4211.794922,4129.743652,4055.897461,4004.102539,431.000000,4.000000,,,,0.000000,2.000000,4.000000,4.000000,4.000000,4.000000,4.000000,4.000000,4.000000,4.000000,4.000000,2.000000,4.000000,4.000000,1.000000,41.666668
1601229786.553371,4.000000,0.000000,3912.307617,4633.846191,4170.256348,4282.563965,3989.743652,4607.692383,3969.743652,3883.589844,4315.384766,4004.615479,4220.512695,4131.794922,4075.384521,4009.743652,458.000000,4.000000,,,,0.000000,2.000000,4.000000,4.000000,4.000000,4.000000,4.000000,4.000000,4.000000,4.000000,4.000000,2.000000,4.000000,4.000000,1.000000,41.666668
1601229786.561292,5.000000,0.000000,3910.769287,4630.256348,4169.230957,4278.974121,3990.769287,4608.205078,3967.692383,3885.128174,4318.974121,4014.871826,4231.794922,4141.538574,4092.820557,4011.281982,432.000000,4.000000,,,,0.000000,2.000000,4.000000,4.000000,4.000000,4.000000,4.000000,4.000000,4.000000,4.000000,4.000000,2.000000,4.000000,4.000000,1.000000,41.666668
1601229786.569112,6.000000,0.000000,3916.923096,4637.436035,4173.333496,4283.589844,3998.974365,4619.487305,3976.923096,3890.769287,4327.179688,4030.256348,4237.436035,4151.794922,4096.410156,4013.846191,441.000000,4.000000,,,,0.000000,2.000000,4.000000,4.000000,4.000000,4.000000,4.000000,4.000000,4.000000,4.000000,4.000000,2.000000,4.000000,4.000000,1.000000,41.666668
1601229786.577032,7.000000,0.000000,3916.410156,4645.128418,4173.846191,4281.538574,3998.974365,4618.974121,3982.564209,3890.256348,4330.769043,4028.205078,4233.846191,4145.641113,4091.794922,4013.846191,348.000000,4.000000,,,,0.000000,2.000000,4.000000,4.000000,4.000000,4.000000,4.000000,4.000000,4.000000,4.000000,4.000000,2.000000,4.000000,4.000000,1.000000,41.666668
1601229786.584853,8.000000,0.000000,3909.743652,4635.897461,4167.692383,4272.820313,3991.794922,4607.692383,3976.410156,3880.000000,4317.948730,4009.230713,4222.051270,4133.846191,4078.974365,4010.769287,406.000000,4.000000,,,,0.000000,2.000000,4.000000,4.000000,4.000000,4.000000,4.000000,4.000000,4.000000,4.000000,4.000000,2.000000,4.000000,4.000000,1.000000,41.666668
1601229786.592773,9.000000,0.000000,3907.179443,4623.077148,4163.589844,4273.333496,3991.794922,4609.743652,3975.384521,3875.384521,4304.615234,4000.512939,4213.846191,4134.358887,4065.641113,4008.205078,404.000000,4.000000,,,,0.000000,2.000000,4.000000,4.000000,4.000000,4.000000,4.000000,4.000000,4.000000,4.000000,4.000000,2.000000,4.000000,4.000000,1.000000,41.666668
1601229786.600593,10.000000,0.000000,3909.230713,4620.000000,4173.333496,4270.769043,3988.718018,4616.922852,3980.512939,3877.948730,4307.179688,4009.230713,4221.025879,4141.025879,4073.846191,4008.718018,426.000000,4.000000,,,,0.000000,2.000000,4.000000,4.000000,4.000000,4.000000,4.000000,4.000000,4.000000,4.000000,4.000000,2.000000,4.000000,4.000000,1.000000,41.666668
1601229786.608314,11.000000,0.000000,3911.794922,4622.051270,4180.000000,4260.000000,3986.153809,4615.897461,3978.461426,3880.000000,4315.897461,4016.923096,4232.820313,4141.538574,4090.769287,4012.820557,49.000000,4.000000,,,,0.000000,2.000000,4.000000,4.000000,4.000000,4.000000,4.000000,4.000000,4.000000,4.000000,4.000000,2.000000,4.000000,4.000000,1.000000,41.666668
1601229786.616134,12.000000,0.000000,3910.769287,4627.692383,4177.436035,4266.153809,3998.461426,4611.794922,3974.871826,3878.461426,4316.410156,4016.923096,4232.307617,4143.589844,4088.205078,4013.846191,229.000000,4.000000,,,,0.000000,2.000000,4.000000,4.000000,4.000000,4.000000,4.000000,4.000000,4.000000,4.000000,4.000000,2.000000,4.000000,4.000000,1.000000,41.666668
1601229786.623855,13.000000,0.000000,3912.820557,4638.974121,4175.897461,4284.615234,4007.692383,4613.846191,3977.435791,3877.948730,4319.487305,4023.076904,4229.743652,4151.282227,4084.615479,4012.820557,350.000000,4.000000,,,,0.000000,2.000000,4.000000,4.000000,4.000000,4.000000,4.000000,4.000000,4.000000,4.000000,4.000000,2.000000,4.000000,4.000000,1.000000,41.666668
1601229786.631675,14.000000,0.000000,3921.025635,4645.641113,4178.461426,4285.128418,3998.461426,4612.820313,3975.897461,3882.051270,4324.102539,4029.230713,4237.948730,4155.384766,4093.846191,4015.384521,426.000000,4.000000,,,,0.000000,2.000000,4.000000,4.000000,4.000000,4.000000,4.000000,4.000000,4.000000,4.000000,4.000000,2.000000,4.000000,4.000000,1.000000,41.666668
1601229786.639396,15.000000,0.000000,3925.128174,4639.487305,4182.051270,4280.000000,3991.794922,4613.846191,3973.333252,3888.718018,4327.179688,4032.307617,4247.692383,4156.922852,4102.563965,4019.487061,49.000000,4.000000,,,,0.000000,2.000000,4.000000,4.000000,4.000000,4.000000,4.000000,4.000000,4.000000,4.000000,4.000000,2.000000,4.000000,4.000000,1.000000,41.666668
1601229786.647216,16.000000,0.000000,3923.076904,4638.461426,4182.051270,4282.563965,4000.512939,4618.461426,3977.948730,3889.230713,4334.358887,4038.974365,4249.230957,4157.436035,4106.666504,4019.487061,0.000000,4.000000,,,,0.000000,2.000000,4.000000,4.000000,4.000000,4.000000,4.000000,4.000000,4.000000,4.000000,4.000000,2.000000,4.000000,4.000000,1.000000,41.666668
1601229786.654936,17.000000,0.000000,3923.589844,4644.615234,4184.102539,4280.000000,4011.281982,4623.589844,3982.051270,3889.230713,4341.538574,4047.692383,4247.692383,4155.897461,4111.794922,4021.025635,0.000000,4.000000,,,,0.000000,2.000000,4.000000,4.000000,4.000000,4.000000,4.000000,4.000000,4.000000,4.000000,4.000000,2.000000,4.000000,4.000000,1.000000,41.666668
1601229786.662757,18.000000,0.000000,3917.435791,4640.512695,4182.563965,4277.948730,4011.794922,4627.692383,3982.051270,3895.384521,4341.025879,4048.718018,4247.692383,4154.871582,4109.743652,4024.615479,0.000000,4.000000,,,,0.000000,2.000000,4.000000,4.000000,4.000000,4.000000,4.000000,4.000000,4.000000,4.000000,4.000000,2.000000,4.000000,4.000000,1.000000,41.666668
1601229786.670477,19.000000,0.000000,3909.230713,4628.717773,4173.333496,4278.974121,4007.179443,4628.205078,3980.512939,3893.333252,4335.897461,4044.615479,4243.589844,4152.307617,4101.538574,4020.512939,0.000000,4.000000,,,,0.000000,2.000000,4.000000,4.000000,4.000000,4.000000,4.000000,4.000000,4.000000,4.000000,4.000000,2.000000,4.000000,4.000000,1.000000,41.666668
1601229786.678298,20.000000,0.000000,3909.230713,4622.051270,4167.179688,4273.333496,4006.666748,4625.641113,3983.076904,3884.615479,4331.794922,4040.512939,4235.897461,4145.128418,4093.333252,4014.358887,0.000000,4.000000,,,,0.000000,2.000000,4.000000,4.000000,4.000000,4.000000,4.000000,4.000000,4.000000,4.000000,4.000000,2.000000,4.000000,4.000000,1.000000,41.666668
1601229786.686018,21.000000,0.000000,3902.564209,4617.436035,4167.179688,4267.692383,4002.051270,4617.436035,3980.512939,3880.000000,4317.948730,4030.769287,4229.230957,4136.922852,4081.538574,4010.256348,0.000000,4.000000,,,,0.000000,2.000000,4.000000,4.000000,4.000000,4.000000,4.000000,4.000000,4.000000,4.000000,4.000000,2.000000,4.000000,4.000000,1.000000,41.666668
1601229786.693838,22.000000,0.000000,3896.923096,4615.897461,4168.717773,4265.128418,3992.820557,4610.769043,3972.820557,3874.871826,4303.589844,4025.641113,4229.743652,4141.025879,4078.974365,4012.307617,0.000000,4.000000,,,,0.000000,2.000000,4.000000,4.000000,4.000000,4.000000,4.000000,4.000000,4.000000,4.000000,4.000000,2.000000,4.000000,4.000000,1.000000,41.666668
1601229786.701559,23.000000,0.000000,3907.179443,4621.025879,4177.948730,4263.589844,3992.307617,4612.820313,3975.384521,3873.846191,4310.256348,4035.897461,4238.974121,4154.358887,4095.384521,4016.410156,0.000000,4.000000,,,,0.000000,2.000000,4.000000,4.000000,4.000000,4.000000,4.000000,4.000000,4.000000,4.000000,4.000000,2.000000,4.000000,4.000000,1.000000,41.666668
1601229786.709479,24.000000,0.000000,3915.897461,4621.025879,4187.692383,4270.256348,3996.923096,4612.820313,3977.948730,3877.948730,4318.461426,4043.076904,4241.538574,4159.487305,4103.077148,4017.948730,0.000000,4.000000,,,,0.000000,2.000000,4.000000,4.000000,4.000000,4.000000,4.000000,4.000000,4.000000,4.000000,4.000000,2.000000,4.000000,4.000000,1.000000,41.666668
1601229786.717300,25.000000,0.000000,3917.948730,4626.666504,4186.153809,4283.589844,3995.897461,4607.692383,3971.794922,3880.000000,4315.897461,4041.538574,4236.410156,4157.948730,4094.871826,4015.897461,0.000000,4.000000,,,,0.000000,2.000000,4.000000,4.000000,4.000000,4.000000,4.000000,4.000000,4.000000,4.000000,4.000000,2.000000,4.000000,4.000000,1.000000,41.666668
1601229786.725220,26.000000,0.000000,3920.000000,4636.410156,4186.666504,4287.692383,3993.333252,4606.153809,3966.153809,3878.461426,4315.897461,4038.974365,4235.384766,4157.436035,4091.281982,4014.871826,0.000000,4.000000,,,,0.000000,2.000000,4.000000,4.000000,4.000000,4.000000,4.000000,4.000000,4.000000,4.000000,4.000000,2.000000,4.000000,4.000000,1.000000,41.666668
1601229786.733040,27.000000,0.000000,3914.358887,4633.333496,4187.179688,4279.487305,3994.358887,4607.179688,3964.615479,3877.948730,4318.974121,4035.897461,4235.384766,4155.897461,4092.307617,4015.897461,0.000000,4.000000,,,,0.000000,2.000000,4.000000,4.000000,4.000000,4.000000,4.000000,4.000000,4.000000,4.000000,4.000000,2.000000,4.000000,4.000000,1.000000,41.666668
1601229786.740960,28.000000,0.000000,3908.718018,4624.102539,4182.051270,4271.794922,3995.897461,4609.230957,3966.153809,3884.615479,4324.615234,4044.102539,4236.922852,4153.846191,4095.897461,4016.923096,0.000000,4.000000,,,,0.000000,2.000000,4.000000,4.000000,4.000000,4.000000,4.000000,4.000000,4.000000,4.000000,4.000000,2.000000,4.000000,4.000000,1.000000,41.666668
1601229786.748781,29.000000,0.000000,3912.307617,4634.358887,4184.102539,4280.000000,3999.487061,4623.077148,3977.435791,3894.871826,4340.000000,4064.615479,4244.615234,4154.871582,4104.615234,4017.948730,0.000000,4.000000,,,,0.000000,2.000000,4.000000,4.000000,4.000000,4.000000,4.000000,4.000000,4.000000,4.000000,4.000000,2.000000,4.000000,4.000000,1.000000,41.666668
1601229786.756701,30.000000,0.000000,3913.846191,4647.179688,4185.641113,4291.282227,4002.051270,4636.922852,3990.769287,3895.384521,4346.153809,4066.666748,4245.641113,4156.922852,4104.615234,4015.897461,0.000000,4.000000,,,,0.000000,2.000000,4.000000,4.000000,4.000000,4.000000,4.000000,4.000000,4.000000,4.000000,4.000000,2.000000,4.000000,4.000000,1.000000,41.666668
1601229786.764521,31.000000,0.000000,3909.230713,4630.769043,4180.512695,4277.948730,3994.871826,4618.461426,3982.051270,3881.025635,4323.589844,4045.128174,4233.846191,4153.846191,4088.205078,4012.820557,0.000000,4.000000,,,,0.000000,2.000000,4.000000,4.000000,4.000000,4.000000,4.000000,4.000000,4.000000,4.000000,4.000000,2.000000,4.000000,4.000000,1.000000,41.666668
1601229786.772442,32.000000,0.000000,3902.564209,4609.743652,4177.436035,4256.922852,3986.666748,4595.384766,3965.128174,3871.794922,4302.051270,4033.333252,4226.666504,4150.256348,4077.435791,4011.281982,0.000000,4.000000,,,,0.000000,2.000000,4.000000,4.000000,4.000000,4.000000,4.000000,4.000000,4.000000,4.000000,4.000000,2.000000,4.000000,4.000000,1.000000,41.666668
1601229786.780262,33.000000,0.000000,3902.051270,4610.769043,4177.948730,4257.948730,3986.153809,4606.153809,3968.718018,3877.435791,4307.692383,4039.487061,4232.307617,4150.256348,4087.179443,4009.743652,0.000000,4.000000,,,,0.000000,2.000000,4.000000,4.000000,4.000000,4.000000,4.000000,4.000000,4.000000,4.000000,4.000000,2.000000,4.000000,4.000000,1.000000,41.666668
1601229786.787983,34.000000,0.000000,3907.692383,4620.000000,4180.512695,4271.282227,3989.230713,4622.051270,3981.538574,3884.102539,4323.589844,4047.179443,4236.410156,4153.333496,4095.897461,4011.281982,0.000000,4.000000,,,,0.000000,2.000000,4.000000,4.000000,4.000000,4.000000,4.000000,4.000000,4.000000,4.000000,4.000000,2.000000,4.000000,4.000000,1.000000,41.666668
1601229786.795803,35.000000,0.000000,3912.307617,4625.641113,4182.563965,4275.384766,3992.307617,4617.436035,3981.025635,3886.153809,4330.769043,4051.281982,4235.384766,4155.384766,4095.384521,4015.384521,0.000000,4.000000,,,,0.000000,2.000000,4.000000,4.000000,4.000000,4.000000,4.000000,4.000000,4.000000,4.000000,4.000000,2.000000,4.000000,4.000000,1.000000,41.666668
1601229786.803523,36.000000,0.000000,3911.794922,4627.179688,4183.077148,4270.256348,3994.871826,4610.769043,3973.333252,3886.666748,4328.717773,4055.897461,4237.436035,4154.358887,4095.897461,4014.358887,0.000000,4.000000,,,,0.000000,2.000000,4.000000,4.000000,4.000000,4.000000,4.000000,4.000000,4.000000,4.000000,4.000000,2.000000,4.000000,4.000000,1.000000,41.666668
1601229786.811344,37.000000,0.000000,3914.358887,4625.641113,4185.128418,4272.307617,3993.333252,4608.717773,3967.179443,3885.128174,4324.102539,4056.923096,4240.512695,4153.333496,4099.487305,4013.333252,0.000000,4.000000,,,,0.000000,2.000000,4.000000,4.000000,4.000000,4.000000,4.000000,4.000000,4.000000,4.000000,4.000000,2.000000,4.000000,4.000000,1.000000,41.666668
1601229786.819164,38.000000,0.000000,3918.974365,4635.384766,4183.589844,4285.641113,3994.871826,4598.974121,3956.410156,3878.974365,4317.948730,4055.384521,4242.563965,4160.512695,4104.615234,4014.358887,0.000000,4.000000,,,,0.000000,2.000000,4.000000,4.000000,4.000000,4.000000,4.000000,4.000000,4.000000,4.000000,4.000000,2.000000,4.000000,4.000000,1.000000,41.666668
1601229786.826884,39.000000,0.000000,3922.051270,4646.666504,4184.102539,4290.256348,4003.589844,4595.897461,3953.846191,3875.897461,4318.974121,4054.871826,4242.563965,4169.230957,4109.743652,4016.410156,0.000000,4.000000,,,,0.000000,2.000000,4.000000,4.000000,4.000000,4.000000,4.000000,4.000000,4.000000,4.000000,4.000000,2.000000,4.000000,4.000000,1.000000,41.666668
1601229786.834605,40.000000,0.000000,3921.025635,4636.922852,4191.794922,4287.692383,4005.128174,4605.641113,3964.615479,3878.974365,4323.077148,4061.025635,4243.077148,4168.717773,4108.205078,4027.179443,0.000000,4.000000,,,,0.000000,2.000000,4.000000,4.000000,4.000000,4.000000,4.000000,4.000000,4.000000,4.000000,4.000000,2.000000,4.000000,4.000000,1.000000,41.666668
1601229786.842425,41.000000,0.000000,3916.923096,4627.692383,4189.743652,4288.205078,3998.461426,4607.692383,3964.615479,3877.948730,4318.461426,4069.230713,4247.692383,4166.153809,4109.230957,4040.000000,0.000000,4.000000,,,,0.000000,2.000000,4.000000,4.000000,4.000000,4.000000,4.000000,4.000000,4.000000,4.000000,4.000000,2.000000,4.000000,4.000000,1.000000,41.666668
1601229786.850146,42.000000,0.000000,3918.974365,4633.846191,4184.102539,4284.615234,3997.435791,4608.205078,3965.128174,3881.025635,4325.641113,4074.358887,4251.794922,4168.717773,4118.974121,4041.538574,0.000000,4.000000,,,,0.000000,2.000000,4.000000,4.000000,4.000000,4.000000,4.000000,4.000000,4.000000,4.000000,4.000000,2.000000,4.000000,4.000000,1.000000,41.666668
1601229786.857966,43.000000,0.000000,3921.538574,4638.974121,4187.692383,4282.051270,3999.487061,4622.563965,3980.512939,3895.897461,4345.641113,4075.384521,4249.743652,4169.743652,4116.410156,4036.410156,0.000000,4.000000,,,,0.000000,2.000000,4.000000,4.000000,4.000000,4.000000,4.000000,4.000000,4.000000,4.000000,4.000000,2.000000,4.000000,4.000000,1.000000,41.666668
1601229786.865686,44.000000,0.000000,3918.461426,4635.384766,4188.205078,4279.487305,4000.512939,4634.871582,3989.230713,3898.974365,4348.717773,4073.333252,4244.615234,4167.179688,4106.153809,4034.871826,0.000000,4.000000,,,,0.000000,2.000000,4.000000,4.000000,4.000000,4.000000,4.000000,4.000000,4.000000,4.000000,4.000000,2.000000,4.000000,4.000000,1.000000,41.666668
1601229786.873507,45.000000,0.000000,3916.410156,4630.256348,4184.102539,4272.307617,4002.051270,4629.230957,3983.589844,3893.333252,4340.000000,4071.794922,4245.641113,4163.077148,4110.769043,4029.743652,0.000000,4.000000,,,,0.000000,2.000000,4.000000,4.000000,4.000000,4.000000,4.000000,4.000000,4.000000,4.000000,4.000000,2.000000,4.000000,4.000000,1.000000,41.666668
1601229786.881227,46.000000,0.000000,3915.897461,4628.717773,4184.102539,4267.179688,3998.974365,4621.538574,3981.025635,3895.897461,4337.436035,4070.256348,4247.692383,4162.563965,4116.410156,4018.461426,0.000000,4.000000,,,,0.000000,2.000000,4.000000,4.000000,4.000000,4.000000,4.000000,4.000000,4.000000,4.000000,4.000000,2.000000,4.000000,4.000000,1.000000,41.666668
1601229786.889148,47.000000,0.000000,3914.358887,4624.102539,4186.666504,4264.102539,3989.230713,4617.436035,3978.461426,3890.256348,4328.205078,4064.102539,4244.615234,4162.051270,4112.307617,4011.281982,0.000000,4.000000,,,,0.000000,2.000000,4.000000,4.000000,4.000000,4.000000,4.000000,4.000000,4.000000,4.000000,4.000000,2.000000,4.000000,4.000000,1.000000,41.666668
1601229786.896968,48.000000,0.000000,3915.384521,4616.410156,4185.128418,4262.051270,3982.564209,4604.102539,3967.692383,3873.333252,4308.717773,4056.923096,4239.487305,4159.487305,4110.256348,4013.333252,0.000000,4.000000,,,,0.000000,2.000000,4.000000,4.000000,4.000000,4.000000,4.000000,4.000000,4.000000,4.000000,4.000000,2.000000,4.000000,4.000000,1.000000,41.666668
1601229786.904888,49.000000,0.000000,3923.076904,4617.436035,4184.102539,4274.358887,3984.102539,4593.846191,3963.589844,3869.743652,4306.666504,4058.461426,4243.077148,4162.563965,4114.358887,4017.435791,0.000000,4.000000,,,,0.000000,2.000000,4.000000,4.000000,4.000000,4.000000,4.000000,4.000000,4.000000,4.000000,4.000000,2.000000,4.000000,4.000000,1.000000,41.666668
1601229786.912709,50.000000,0.000000,3927.179443,4626.153809,4190.769043,4286.153809,3986.666748,4597.948730,3966.153809,3875.384521,4313.846191,4065.641113,4250.769043,4173.846191,4116.410156,4019.487061,0.000000,4.000000,,,,0.000000,2.000000,4.000000,4.000000,4.000000,4.000000,4.000000,4.000000,4.000000,4.000000,4.000000,2.000000,4.000000,4.000000,1.000000,41.666668
1601229786.920629,51.000000,0.000000,3927.692383,4635.384766,4194.871582,4281.538574,3987.692383,4607.179688,3967.179443,3876.923096,4318.461426,4070.769287,4248.205078,4181.025879,4120.000000,4021.025635,0.000000,4.000000,,,,0.000000,2.000000,4.000000,4.000000,4.000000,4.000000,4.000000,4.000000,4.000000,4.000000,4.000000,2.000000,4.000000,4.000000,1.000000,41.666668
1601229786.928449,52.000000,0.000000,3926.666748,4641.025879,4194.871582,4280.512695,3993.333252,4608.717773,3967.692383,3882.564209,4325.641113,4078.461426,4247.692383,4184.102539,4125.128418,4023.076904,0.000000,4.000000,,,,0.000000,2.000000,4.000000,4.000000,4.000000,4.000000,4.000000,4.000000,4.000000,4.000000,4.000000,2.000000,4.000000,4.000000,1.000000,41.666668
1601229786.936369,53.000000,0.000000,3928.205078,4642.563965,4194.871582,4282.051270,3999.487061,4605.641113,3966.666748,3889.230713,4330.769043,4083.076904,4256.922852,4187.179688,4128.717773,4024.615479,0.000000,4.000000,,,,0.000000,2.000000,4.000000,4.000000,4.000000,4.000000,4.000000,4.000000,4.000000,4.000000,4.000000,2.000000,4.000000,4.000000,1.000000,41.666668
1601229786.944190,54.000000,0.000000,3931.281982,4641.538574,4194.871582,4276.410156,3997.435791,4607.179688,3965.641113,3891.281982,4331.282227,4085.128174,4259.487305,4183.077148,4132.820313,4022.564209,0.000000,4.000000,,,,0.000000,2.000000,4.000000,4.000000,4.000000,4.000000,4.000000,4.000000,4.000000,4.000000,4.000000,2.000000,4.000000,4.000000,1.000000,41.666668
1601229786.952110,55.000000,0.000000,3926.153809,4635.897461,4189.743652,4272.820313,3995.384521,4610.769043,3965.128174,3888.718018,4326.153809,4083.076904,4250.769043,4172.307617,4127.179688,4017.948730,0.000000,4.000000,,,,0.000000,2.000000,4.000000,4.000000,4.000000,4.000000,4.000000,4.000000,4.000000,4.000000,4.000000,2.000000,4.000000,4.000000,1.000000,41.666668
1601229786.959930,56.000000,0.000000,3918.461426,4627.179688,4186.666504,4270.769043,3997.948730,4615.897461,3965.641113,3882.564209,4322.563965,4078.461426,4244.615234,4166.153809,4114.871582,4015.897461,0.000000,4.000000,,,,0.000000,2.000000,4.000000,4.000000,4.000000,4.000000,4.000000,4.000000,4.000000,4.000000,4.000000,2.000000,4.000000,4.000000,1.000000,41.666668
1601229786.967851,57.000000,0.000000,3922.564209,4627.692383,4190.256348,4269.743652,3997.435791,4619.487305,3972.820557,3885.641113,4326.153809,4082.051270,4249.743652,4168.717773,4115.897461,4015.384521,0.000000,4.000000,,,,0.000000,2.000000,4.000000,4.000000,4.000000,4.000000,4.000000,4.000000,4.000000,4.000000,4.000000,2.000000,4.000000,4.000000,1.000000,41.666668
1601229786.975671,58.000000,0.000000,3921.025635,4626.153809,4182.563965,4269.743652,3994.358887,4612.307617,3977.948730,3884.615479,4326.153809,4080.000000,4246.153809,4164.102539,4116.922852,4014.358887,0.000000,4.000000,,,,0.000000,2.000000,4.000000,4.000000,4.000000,4.000000,4.000000,4.000000,4.000000,4.000000,4.000000,2.000000,4.000000,4.000000,1.000000,41.666668
1601229786.983392,59.000000,0.000000,3911.281982,4613.333496,4173.846191,4264.102539,3988.718018,4604.102539,3968.718018,3870.256348,4312.820313,4065.641113,4235.897461,4156.922852,4105.128418,4013.846191,0.000000,4.000000,,,,0.000000,2.000000,4.000000,4.000000,4.000000,4.000000,4.000000,4.000000,4.000000,4.000000,4.000000,2.000000,4.000000,4.000000,1.000000,41.666668
1601229786.991212,60.000000,0.000000,3917.948730,4614.871582,4180.512695,4261.025879,3984.615479,4610.769043,3967.692383,3867.692383,4309.230957,4067.692383,4242.563965,4166.153809,4112.307617,4017.435791,0.000000,4.000000,,,,0.000000,2.000000,4.000000,4.000000,4.000000,4.000000,4.000000,4.000000,4.000000,4.000000,4.000000,2.000000,4.000000,4.000000,1.000000,41.666668
1601229786.998932,61.000000,0.000000,3926.666748,4624.102539,4188.717773,4262.051270,3986.153809,4612.820313,3978.974365,3876.410156,4320.512695,4086.666748,4252.820313,4174.871582,4129.743652,4018.974365,0.000000,4.000000,,,,0.000000,2.000000,4.000000,4.000000,4.000000,4.000000,4.000000,4.000000,4.000000,4.000000,4.000000,2.000000,4.000000,4.000000,1.000000,41.666668
1601229787.006753,62.000000,0.000000,3920.000000,4616.410156,4186.666504,4251.282227,3985.128174,4597.948730,3970.256348,3874.871826,4320.512695,4083.589844,4247.179688,4168.717773,4115.897461,4014.871826,0.000000,4.000000,,,,0.000000,2.000000,4.000000,4.000000,4.000000,4.000000,4.000000,4.000000,4.000000,4.000000,4.000000,2.000000,4.000000,4.000000,1.000000,41.666668
1601229787.014473,63.000000,0.000000,3918.461426,4612.307617,4185.128418,4252.307617,3982.564209,4597.436035,3961.538574,3877.435791,4321.538574,4076.410156,4241.025879,4165.641113,4102.051270,4014.358887,0.000000,4.000000,,,,0.000000,2.000000,4.000000,4.000000,4.000000,4.000000,4.000000,4.000000,4.000000,4.000000,4.000000,2.000000,4.000000,4.000000,1.000000,41.666668
1601229787.022294,64.000000,0.000000,3928.205078,4626.666504,4190.256348,4275.897461,3990.256348,4614.871582,3974.358887,3891.281982,4336.410156,4095.384521,4249.743652,4173.333496,4119.487305,4015.384521,383.000000,4.000000,,,,0.000000,2.000000,4.000000,4.000000,4.000000,4.000000,4.000000,4.000000,4.000000,4.000000,4.000000,2.000000,4.000000,4.000000,1.000000,41.666668
1601229787.030014,65.000000,0.000000,3928.205078,4634.871582,4187.179688,4277.948730,3996.410156,4620.512695,3979.487061,3889.230713,4340.000000,4100.512695,4254.358887,4173.333496,4123.589844,4013.846191,435.000000,4.000000,,,,0.000000,2.000000,4.000000,4.000000,4.000000,4.000000,4.000000,4.000000,4.000000,4.000000,4.000000,2.000000,4.000000,4.000000,1.000000,41.666668
1601229787.037834,66.000000,0.000000,3920.000000,4628.205078,4186.153809,4263.077148,3993.333252,4622.051270,3983.589844,3887.179443,4337.948730,4086.666748,4247.179688,4167.692383,4110.256348,4010.256348,383.000000,4.000000,,,,0.000000,2.000000,4.000000,4.000000,4.000000,4.000000,4.000000,4.000000,4.000000,4.000000,4.000000,2.000000,4.000000,4.000000,1.000000,41.666668
1601229787.045555,67.000000,0.000000,3914.358887,4622.563965,4186.666504,4268.205078,3994.358887,4628.205078,3995.897461,3898.461426,4345.641113,4087.179443,4247.179688,4170.769043,4108.717773,4010.769287,431.000000,4.000000,,,,0.000000,2.000000,4.000000,4.000000,4.000000,4.000000,4.000000,4.000000,4.000000,4.000000,4.000000,2.000000,4.000000,4.000000,1.000000,41.666668
1601229787.053375,68.000000,0.000000,3910.256348,4625.128418,4182.051270,4266.666504,3994.358887,4618.974121,3989.230713,3893.846191,4339.487305,4088.205078,4246.666504,4168.717773,4106.666504,4010.256348,458.000000,4.000000,,,,0.000000,2.000000,4.000000,4.000000,4.000000,4.000000,4.000000,4.000000,4.000000,4.000000,4.000000,2.000000,4.000000,4.000000,1.000000,41.666668
1601229787.061096,69.000000,0.000000,3909.743652,4626.153809,4181.025879,4250.769043,3987.692383,4605.128418,3969.230713,3870.256348,4315.897461,4070.769287,4237.948730,4157.436035,4094.358887,4006.153809,432.000000,4.000000,,,,0.000000,2.000000,4.000000,4.000000,4.000000,4.000000,4.000000,4.000000,4.000000,4.000000,4.000000,2.000000,4.000000,4.000000,1.000000,41.666668
1601229787.069016,70.000000,0.000000,3916.923096,4628.717773,4184.102539,4259.487305,3989.743652,4613.333496,3976.923096,3867.692383,4310.769043,4071.281982,4235.897461,4159.487305,4096.410156,4004.615479,441.000000,4.000000,,,,0.000000,2.000000,4.000000,4.000000,4.000000,4.000000,4.000000,4.000000,4.000000,4.000000,4.000000,2.000000,4.000000,4.000000,1.000000,41.666668
1601229787.076836,71.000000,0.000000,3918.974365,4630.256348,4183.077148,4270.769043,3995.384521,4626.153809,3991.281982,3880.512939,4322.051270,4091.794922,4245.128418,4169.230957,4109.743652,4007.692383,348.000000,4.000000,,,,0.000000,2.000000,4.000000,4.000000,4.000000,4.000000,4.000000,4.000000,4.000000,4.000000,4.000000,2.000000,4.000000,4.000000,1.000000,41.666668
1601229787.084757,72.000000,0.000000,3909.743652,4618.974121,4179.487305,4249.743652,3989.743652,4614.871582,3978.974365,3876.923096,4322.563965,4090.256348,4242.563965,4161.538574,4108.205078,4008.718018,406.000000,4.000000,,,,0.000000,2.000000,4.000000,4.000000,4.000000,4.000000,4.000000,4.000000,4.000000,4.000000,4.000000,2.000000,4.000000,4.000000,1.000000,41.666668
1601229787.092577,73.000000,0.000000,3910.769287,4612.307617,4183.077148,4237.436035,3986.153809,4602.563965,3968.718018,3874.358887,4320.000000,4080.512939,4234.871582,4156.922852,4101.538574,4005.128174,404.000000,4.000000,,,,0.000000,2.000000,4.000000,4.000000,4.000000,4.000000,4.000000,4.000000,4.000000,4.000000,4.000000,2.000000,4.000000,4.000000,1.000000,41.666668
1601229787.100497,74.000000,0.000000,3925.128174,4629.230957,4186.666504,4260.000000,3988.205078,4606.666504,3973.333252,3882.051270,4325.128418,4087.179443,4241.025879,4166.666504,4105.128418,4007.692383,426.000000,4.000000,,,,0.000000,2.000000,4.000000,4.000000,4.000000,4.000000,4.000000,4.000000,4.000000,4.000000,4.000000,2.000000,4.000000,4.000000,1.000000,41.666668
1601229787.108318,75.000000,0.000000,3928.718018,4641.025879,4185.128418,4276.922852,3985.641113,4609.230957,3970.769287,3878.461426,4324.102539,4088.205078,4243.589844,4167.692383,4106.153809,4009.230713,49.000000,4.000000,,,,0.000000,2.000000,4.000000,4.000000,4.000000,4.000000,4.000000,4.000000,4.000000,4.000000,4.000000,2.000000,4.000000,4.000000,1.000000,41.666668
1601229787.116238,76.000000,0.000000,3924.615479,4636.922852,4184.102539,4268.717773,3985.128174,4606.666504,3968.205078,3871.794922,4316.410156,4073.846191,4234.871582,4161.538574,4094.358887,4004.102539,229.000000,4.000000,,,,0.000000,2.000000,4.000000,4.000000,4.000000,4.000000,4.000000,4.000000,4.000000,4.000000,4.000000,2.000000,4.000000,4.000000,1.000000,41.666668
1601229787.124058,77.000000,0.000000,3924.102539,4634.871582,4186.153809,4262.051270,3986.153809,4604.102539,3970.256348,3871.794922,4312.307617,4064.102539,4229.230957,4156.922852,4085.641113,4000.000000,350.000000,4.000000,,,,0.000000,2.000000,4.000000,4.000000,4.000000,4.000000,4.000000,4.000000,4.000000,4.000000,4.000000,2.000000,4.000000,4.000000,1.000000,41.666668
1601229787.131979,78.000000,0.000000,3922.564209,4628.205078,4187.692383,4263.077148,3985.128174,4601.025879,3966.153809,3869.743652,4305.128418,4065.128174,4232.307617,4155.384766,4090.769287,4003.589844,426.000000,4.000000,,,,0.000000,2.000000,4.000000,4.000000,4.000000,4.000000,4.000000,4.000000,4.000000,4.000000,4.000000,2.000000,4.000000,4.000000,1.000000,41.666668
1601229787.139799,79.000000,0.000000,3923.589844,4626.153809,4186.153809,4263.589844,3992.820557,4607.692383,3972.307617,3868.718018,4301.538574,4072.820557,4241.538574,4164.102539,4100.000000,4006.666748,49.000000,4.000000,,,,0.000000,2.000000,4.000000,4.000000,4.000000,4.000000,4.000000,4.000000,4.000000,4.000000,4.000000,2.000000,4.000000,4.000000,1.000000,41.666668
1601229787.147719,80.000000,0.000000,3927.692383,4641.538574,4185.641113,4269.743652,4004.102539,4622.563965,3989.230713,3874.358887,4308.205078,4082.564209,4242.563965,4171.282227,4101.025879,4004.102539,229.000000,4.000000,,,,0.000000,2.000000,4.000000,4.000000,4.000000,4.000000,4.000000,4.000000,4.000000,4.000000,4.000000,2.000000,4.000000,4.000000,1.000000,41.666668
1601229787.155540,81.000000,0.000000,3925.641113,4650.769043,4183.589844,4276.410156,4000.512939,4623.589844,3988.205078,3875.897461,4310.769043,4081.538574,4231.794922,4161.538574,4091.794922,4001.025635,350.000000,4.000000,,,,0.000000,2.000000,4.000000,4.000000,4.000000,4.000000,4.000000,4.000000,4.000000,4.000000,4.000000,2.000000,4.000000,4.000000,1.000000,41.666668
1601229787.163260,82.000000,0.000000,3921.538574,4645.641113,4184.102539,4268.717773,3995.897461,4617.436035,3982.564209,3877.948730,4314.871582,4078.974365,4233.333496,4155.897461,4090.256348,4003.589844,426.000000,4.000000,,,,0.000000,2.000000,4.000000,4.000000,4.000000,4.000000,4.000000,4.000000,4.000000,4.000000,4.000000,2.000000,4.000000,4.000000,1.000000,41.666668
1601229787.171080,83.000000,0.000000,3926.153809,4645.128418,4189.230957,4262.051270,4001.538574,4623.077148,3988.205078,3886.666748,4327.179688,4089.230713,4248.205078,4164.102539,4103.077148,4006.666748,49.000000,4.000000,,,,0.000000,2.000000,4.000000,4.000000,4.000000,4.000000,4.000000,4.000000,4.000000,4.000000,4.000000,2.000000,4.000000,4.000000,1.000000,41.666668
1601229787.178801,84.000000,0.000000,3928.205078,4644.102539,4190.769043,4271.794922,4004.615479,4628.205078,3991.794922,3888.205078,4330.769043,4095.897461,4245.128418,4168.717773,4110.256348,4005.128174,229.000000,4.000000,,,,0.000000,2.000000,4.000000,4.000000,4.000000,4.000000,4.000000,4.000000,4.000000,4.000000,4.000000,2.000000,4.000000,4.000000,1.000000,41.666668
1601229787.186621,85.000000,0.000000,3919.487061,4643.077148,4183.077148,4281.025879,4000.512939,4617.948730,3984.615479,3881.025635,4317.948730,4085.128174,4232.820313,4164.615234,4101.025879,4002.564209,350.000000,4.000000,,,,0.000000,2.000000,4.000000,4.000000,4.000000,4.000000,4.000000,4.000000,4.000000,4.000000,4.000000,2.000000,4.000000,4.000000,1.000000,41.666668
1601229787.194342,86.000000,0.000000,3916.410156,4647.179688,4175.897461,4281.025879,3998.461426,4602.563965,3975.384521,3876.410156,4306.666504,4070.769287,4231.794922,4156.922852,4085.128174,4003.076904,426.000000,4.000000,,,,0.000000,2.000000,4.000000,4.000000,4.000000,4.000000,4.000000,4.000000,4.000000,4.000000,4.000000,2.000000,4.000000,4.000000,1.000000,41.666668
1601229787.202162,87.000000,0.000000,3924.102539,4648.717773,4178.461426,4285.641113,4000.512939,4610.769043,3983.589844,3883.076904,4313.846191,4074.358887,4237.948730,4159.487305,4086.153809,4008.205078,49.000000,4.000000,,,,0.000000,2.000000,4.000000,4.000000,4.000000,4.000000,4.000000,4.000000,4.000000,4.000000,4.000000,2.000000,4.000000,4.000000,1.000000,41.666668
1601229787.209883,88.000000,0.000000,3932.307617,4652.820313,4191.794922,4291.282227,3999.487061,4630.769043,3997.948730,3890.769287,4323.589844,4085.641113,4246.666504,4171.282227,4105.128418,4012.307617,229.000000,4.000000,,,,0.000000,2.000000,4.000000,4.000000,4.000000,4.000000,4.000000,4.000000,4.000000,4.000000,4.000000,2.000000,4.000000,4.000000,1.000000,41.666668
1601229787.217703,89.000000,0.000000,3930.769287,4653.333496,4200.512695,4289.230957,3996.410156,4628.717773,3993.846191,3885.128174,4318.461426,4084.615479,4247.179688,4171.282227,4110.256348,4014.871826,350.000000,4.000000,,,,0.000000,2.000000,4.000000,4.000000,4.000000,4.000000,4.000000,4.000000,4.000000,4.000000,4.000000,2.000000,4.000000,4.000000,1.000000,41.666668
1601229787.225423,90.000000,0.000000,3920.000000,4640.512695,4192.307617,4284.615234,3997.948730,4615.897461,3984.615479,3873.846191,4304.615234,4073.333252,4237.948730,4157.436035,4092.307617,4020.000000,426.000000,4.000000,,,,0.000000,2.000000,4.000000,4.000000,4.000000,4.000000,4.000000,4.000000,4.000000,4.000000,4.000000,2.000000,4.000000,4.000000,1.000000,41.666668
1601229787.233244,91.000000,0.000000,3914.871826,4633.846191,4182.051270,4285.641113,4002.564209,4619.487305,3987.692383,3869.230713,4302.563965,4071.794922,4231.794922,4151.794922,4080.512939,4021.025635,49.000000,4.000000,,,,0.000000,2.000000,4.000000,4.000000,4.000000,4.000000,4.000000,4.000000,4.000000,4.000000,4.000000,2.000000,4.000000,4.000000,1.000000,41.666668
1601229787.240964,92.000000,0.000000,3917.948730,4642.051270,4185.128418,4287.692383,3998.974365,4626.153809,3989.743652,3876.410156,4311.794922,4082.051270,4233.846191,4155.384766,4091.281982,4014.358887,229.000000,4.000000,,,,0.000000,2.000000,4.000000,4.000000,4.000000,4.000000,4.000000,4.000000,4.000000,4.000000,4.000000,2.000000,4.000000,4.000000,1.000000,41.666668
1601229787.248785,93.000000,0.000000,3915.897461,4643.589844,4184.615234,4283.077148,3995.384521,4627.179688,3988.718018,3887.692383,4316.410156,4091.281982,4240.000000,4158.974121,4100.000000,4011.281982,350.000000,4.000000,,,,0.000000,2.000000,4.000000,4.000000,4.000000,4.000000,4.000000,4.000000,4.000000,4.000000,4.000000,2.000000,4.000000,4.000000,1.000000,41.666668
1601229787.256505,94.000000,0.000000,3910.256348,4632.307617,4173.333496,4274.871582,3998.461426,4628.205078,3992.820557,3889.743652,4314.871582,4094.871826,4243.077148,4157.436035,4090.769287,4012.820557,426.000000,4.000000,,,,0.000000,2.000000,4.000000,4.000000,4.000000,4.000000,4.000000,4.000000,4.000000,4.000000,4.000000,2.000000,4.000000,4.000000,1.000000,41.666668
1601229787.264425,95.000000,0.000000,3907.692383,4622.563965,4171.282227,4273.333496,3996.410156,4621.538574,3993.333252,3884.615479,4314.871582,4087.692383,4234.871582,4148.717773,4080.512939,4011.281982,49.000000,4.000000,,,,0.000000,2.000000,4.000000,4.000000,4.000000,4.000000,4.000000,4.000000,4.000000,4.000000,4.000000,2.000000,4.000000,4.000000,1.000000,41.666668
1601229787.272246,96.000000,0.000000,3903.589844,4618.461426,4173.846191,4275.897461,3986.153809,4614.358887,3988.205078,3884.615479,4314.358887,4077.435791,4227.692383,4142.051270,4078.461426,4008.205078,229.000000,4.000000,,,,0.000000,2.000000,4.000000,4.000000,4.000000,4.000000,4.000000,4.000000,4.000000,4.000000,4.000000,2.000000,4.000000,4.000000,1.000000,41.666668
1601229787.280166,97.000000,0.000000,3901.025635,4616.410156,4171.794922,4272.307617,3983.589844,4612.307617,3982.564209,3882.564209,4304.615234,4071.281982,4228.717773,4142.051270,4073.333252,4005.128174,350.000000,4.000000,,,,0.000000,2.000000,4.000000,4.000000,4.000000,4.000000,4.000000,4.000000,4.000000,4.000000,4.000000,2.000000,4.000000,4.000000,1.000000,41.666668
1601229787.287986,98.000000,0.000000,3910.769287,4627.692383,4179.487305,4271.794922,3992.820557,4616.410156,3983.076904,3877.948730,4301.025879,4072.820557,4230.769043,4148.205078,4071.281982,4005.128174,426.000000,4.000000,,,,0.000000,2.000000,4.000000,4.000000,4.000000,4.000000,4.000000,4.000000,4.000000,4.000000,4.000000,2.000000,4.000000,4.000000,1.000000,41.666668
1601229787.295907,99.000000,0.000000,3916.923096,4644.102539,4190.769043,4281.538574,3999.487061,4618.974121,3983.076904,3876.923096,4305.641113,4077.435791,4229.743652,4152.307617,4077.435791,4010.769287,49.000000,4.000000,,,,0.000000,2.000000,4.000000,4.000000,4.000000,4.000000,4.000000,4.000000,4.000000,4.000000,4.000000,2.000000,4.000000,4.000000,1.000000,41.666668
1601229787.303727,100.000000,0.000000,3911.281982,4643.589844,4183.077148,4288.205078,4001.025635,4613.846191,3977.435791,3875.897461,4305.641113,4082.051270,4231.282227,4152.307617,4077.435791,4007.692383,229.000000,4.000000,,,,0.000000,2.000000,4.000000,4.000000,4.000000,4.000000,4.000000,4.000000,4.000000,4.000000,4.000000,2.000000,4.000000,4.000000,1.000000,41.666668
1601229787.311647,101.000000,0.000000,3910.256348,4638.461426,4173.333496,4286.153809,4002.051270,4611.282227,3976.410156,3875.897461,4311.282227,4093.333252,4241.538574,4153.333496,4085.128174,4005.128174,350.000000,4.000000,,,,0.000000,2.000000,4.000000,4.000000,4.000000,4.000000,4.000000,4.000000,4.000000,4.000000,4.000000,2.000000,4.000000,4.000000,1.000000,41.666668
1601229787.319468,102.000000,0.000000,3917.948730,4641.025879,4181.025879,4284.615234,4000.000000,4623.589844,3984.102539,3880.000000,4325.641113,4110.256348,4252.307617,4156.410156,4106.666504,4012.307617,426.000000,4.000000,,,,0.000000,2.000000,4.000000,4.000000,4.000000,4.000000,4.000000,4.000000,4.000000,4.000000,4.000000,2.000000,4.000000,4.000000,1.000000,41.666668
1601229787.327388,103.000000,0.000000,3917.948730,4635.384766,4187.179688,4279.487305,3993.846191,4629.743652,3986.666748,3879.487061,4323.077148,4110.256348,4252.307617,4155.384766,4103.589844,4013.333252,49.000000,4.000000,,,,0.000000,2.000000,4.000000,4.000000,4.000000,4.000000,4.000000,4.000000,4.000000,4.000000,4.000000,2.000000,4.000000,4.000000,1.000000,41.666668
1601229787.335208,104.000000,0.000000,3910.256348,4625.641113,4178.974121,4269.743652,3989.743652,4616.922852,3982.051270,3880.512939,4307.179688,4094.358887,4247.179688,4151.794922,4082.051270,4010.769287,229.000000,4.000000,,,,0.000000,2.000000,4.000000,4.000000,4.000000,4.000000,4.000000,4.000000,4.000000,4.000000,4.000000,2.000000,4.000000,4.000000,1.000000,41.666668
1601229787.343128,105.000000,0.000000,3908.205078,4624.615234,4172.820313,4261.538574,3993.846191,4612.820313,3986.666748,3893.333252,4312.307617,4090.769287,4244.615234,4152.307617,4082.051270,4023.589844,350.000000,4.000000,,,,0.000000,2.000000,4.000000,4.000000,4.000000,4.000000,4.000000,4.000000,4.000000,4.000000,4.000000,2.000000,4.000000,4.000000,1.000000,41.666668
1601229787.350949,106.000000,0.000000,3907.692383,4619.487305,4173.333496,4259.487305,3995.897461,4623.589844,3996.923096,3900.000000,4326.153809,4093.846191,4242.051270,4152.307617,4083.589844,4035.897461,426.000000,4.000000,,,,0.000000,2.000000,4.000000,4.000000,4.000000,4.000000,4.000000,4.000000,4.000000,4.000000,4.000000,2.000000,4.000000,4.000000,1.000000,41.666668
1601229787.358669,107.000000,0.000000,3904.615479,4613.333496,4169.743652,4267.692383,3991.281982,4623.589844,3996.923096,3893.333252,4320.512695,4087.179443,4241.025879,4149.743652,4073.333252,4031.794922,49.000000,4.000000,,,,0.000000,2.000000,4.000000,4.000000,4.000000,4.000000,4.000000,4.000000,4.000000,4.000000,4.000000,2.000000,4.000000,4.000000,1.000000,41.666668
1601229787.366490,108.000000,0.000000,3913.333252,4632.307617,4171.794922,4280.000000,3993.333252,4622.051270,3996.923096,3891.794922,4321.025879,4093.333252,4247.692383,4154.871582,4087.179443,4026.153809,229.000000,4.000000,,,,0.000000,2.000000,4.000000,4.000000,4.000000,4.000000,4.000000,4.000000,4.000000,4.000000,4.000000,2.000000,4.000000,4.000000,1.000000,41.666668
1601229787.374210,109.000000,0.000000,3930.256348,4654.358887,4187.692383,4289.743652,4004.102539,4629.743652,4003.076904,3898.974365,4340.000000,4119.487305,4260.512695,4168.205078,4120.512695,4031.794922,350.000000,4.000000,,,,0.000000,2.000000,4.000000,4.000000,4.000000,4.000000,4.000000,4.000000,4.000000,4.000000,4.000000,2.000000,4.000000,4.000000,1.000000,41.666668
1601229787.382031,110.000000,0.000000,3933.846191,4652.820313,4196.922852,4295.384766,4011.281982,4626.153809,3997.948730,3892.820557,4339.487305,4134.358887,4269.230957,4175.384766,4128.205078,4036.923096,426.000000,4.000000,,,,0.000000,2.000000,4.000000,4.000000,4.000000,4.000000,4.000000,4.000000,4.000000,4.000000,4.000000,2.000000,4.000000,4.000000,1.000000,41.666668
1601229787.389751,111.000000,0.000000,3928.205078,4647.179688,4190.256348,4294.358887,4007.179443,4613.846191,3979.487061,3877.435791,4322.051270,4124.102539,4262.563965,4164.615234,4110.769043,4031.281982,49.000000,4.000000,,,,0.000000,2.000000,4.000000,4.000000,4.000000,4.000000,4.000000,4.000000,4.000000,4.000000,4.000000,2.000000,4.000000,4.000000,1.000000,41.666668
1601229787.397571,112.000000,0.000000,3926.666748,4651.794922,4186.153809,4289.743652,4002.564209,4609.230957,3972.307617,3872.820557,4320.512695,4109.743652,4249.743652,4155.897461,4094.871826,4018.461426,229.000000,4.000000,,,,0.000000,2.000000,4.000000,4.000000,4.000000,4.000000,4.000000,4.000000,4.000000,4.000000,4.000000,2.000000,4.000000,4.000000,1.000000,41.666668
1601229787.405292,113.000000,0.000000,3926.666748,4658.461426,4186.153809,4296.922852,4009.230713,4613.333496,3985.128174,3884.102539,4326.153809,4113.333496,4245.641113,4164.102539,4091.794922,4010.769287,350.000000,4.000000,,,,0.000000,2.000000,4.000000,4.000000,4.000000,4.000000,4.000000,4.000000,4.000000,4.000000,4.000000,2.000000,4.000000,4.000000,1.000000,41.666668
1601229787.413212,114.000000,0.000000,3925.128174,4657.436035,4188.717773,4294.871582,4014.358887,4617.436035,3993.333252,3892.820557,4326.666504,4127.179688,4255.384766,4172.307617,4102.051270,4013.333252,426.000000,4.000000,,,,0.000000,2.000000,4.000000,4.000000,4.000000,4.000000,4.000000,4.000000,4.000000,4.000000,4.000000,2.000000,4.000000,4.000000,1.000000,41.666668
1601229787.421032,115.000000,0.000000,3926.666748,4641.538574,4194.358887,4277.948730,4007.179443,4615.897461,3994.358887,3895.384521,4330.769043,4127.692383,4264.615234,4170.256348,4115.897461,4015.897461,49.000000,4.000000,,,,0.000000,2.000000,4.000000,4.000000,4.000000,4.000000,4.000000,4.000000,4.000000,4.000000,4.000000,2.000000,4.000000,4.000000,1.000000,41.666668
1601229787.428953,116.000000,0.000000,3927.692383,4627.179688,4189.743652,4274.358887,3999.487061,4615.384766,3998.974365,3897.948730,4332.307617,4116.410156,4258.974121,4169.230957,4114.871582,4015.897461,229.000000,4.000000,,,,0.000000,2.000000,4.000000,4.000000,4.000000,4.000000,4.000000,4.000000,4.000000,4.000000,4.000000,2.000000,4.000000,4.000000,1.000000,41.666668
1601229787.436773,117.000000,0.000000,3920.000000,4632.820313,4183.077148,4275.384766,3997.435791,4624.615234,4004.615479,3896.410156,4328.717773,4114.871582,4248.205078,4170.256348,4105.128418,4014.358887,350.000000,4.000000,,,,0.000000,2.000000,4.000000,4.000000,4.000000,4.000000,4.000000,4.000000,4.000000,4.000000,4.000000,2.000000,4.000000,4.000000,1.000000,41.666668
1601229787.444693,118.000000,0.000000,3910.769287,4636.922852,4183.589844,4270.769043,3997.435791,4633.846191,4007.179443,3898.461426,4335.384766,4124.615234,4249.743652,4168.205078,4106.153809,4013.333252,426.000000,4.000000,,,,0.000000,2.000000,4.000000,4.000000,4.000000,4.000000,4.000000,4.000000,4.000000,4.000000,4.000000,2.000000,4.000000,4.000000,1.000000,41.666668
1601229787.452514,119.000000,0.000000,3908.718018,4628.205078,4183.589844,4273.333496,4001.538574,4628.717773,4004.615479,3902.051270,4343.077148,4129.743652,4253.846191,4165.641113,4108.717773,4011.794922,49.000000,4.000000,,,,0.000000,2.000000,4.000000,4.000000,4.000000,4.000000,4.000000,4.000000,4.000000,4.000000,4.000000,2.000000,4.000000,4.000000,1.000000,41.666668
1601229787.460434,120.000000,0.000000,3910.256348,4632.307617,4181.538574,4284.102539,4007.692383,4623.077148,3995.384521,3897.948730,4336.922852,4126.153809,4254.871582,4166.153809,4105.641113,4008.718018,229.000000,4.000000,,,,0.000000,2.000000,4.000000,4.000000,4.000000,4.000000,4.000000,4.000000,4.000000,4.000000,4.000000,2.000000,4.000000,4.000000,1.000000,41.666668
1601229787.468254,121.000000,0.000000,3911.794922,4643.589844,4184.615234,4289.230957,4009.230713,4618.974121,3985.641113,3890.256348,4327.692383,4122.563965,4252.820313,4166.666504,4102.563965,4005.128174,350.000000,4.000000,,,,0.000000,2.000000,4.000000,4.000000,4.000000,4.000000,4.000000,4.000000,4.000000,4.000000,4.000000,2.000000,4.000000,4.000000,1.000000,41.666668
1601229787.476175,122.000000,0.000000,3920.512939,4640.000000,4187.179688,4284.615234,4008.718018,4612.307617,3982.564209,3885.128174,4320.000000,4116.922852,4243.589844,4161.538574,4097.436035,4006.153809,426.000000,4.000000,,,,0.000000,2.000000,4.000000,4.000000,4.000000,4.000000,4.000000,4.000000,4.000000,4.000000,4.000000,2.000000,4.000000,4.000000,1.000000,41.666668
1601229787.483995,123.000000,0.000000,3930.256348,4647.692383,4187.692383,4284.615234,4011.281982,4609.743652,3978.461426,3876.923096,4308.717773,4110.769043,4240.512695,4158.461426,4090.769287,4011.281982,49.000000,4.000000,,,,0.000000,2.000000,4.000000,4.000000,4.000000,4.000000,4.000000,4.000000,4.000000,4.000000,4.000000,2.000000,4.000000,4.000000,1.000000,41.666668
1601229787.491915,124.000000,0.000000,3925.128174,4660.512695,4186.666504,4294.871582,4011.281982,4609.230957,3976.923096,3871.794922,4303.077148,4106.153809,4245.128418,4164.102539,4092.307617,4011.281982,229.000000,4.000000,,,,0.000000,2.000000,4.000000,4.000000,4.000000,4.000000,4.000000,4.000000,4.000000,4.000000,4.000000,2.000000,4.000000,4.000000,1.000000,41.666668
1601229787.499736,125.000000,0.000000,3916.410156,4655.384766,4183.589844,4298.974121,4005.641113,4605.641113,3976.923096,3876.410156,4302.563965,4096.410156,4243.589844,4166.666504,4093.333252,4010.256348,350.000000,4.000000,,,,0.000000,2.000000,4.000000,4.000000,4.000000,4.000000,4.000000,4.000000,4.000000,4.000000,4.000000,2.000000,4.000000,4.000000,1.000000,41.666668
1601229787.507656,126.000000,0.000000,3916.410156,4648.205078,4184.102539,4286.153809,3998.461426,4600.000000,3969.230713,3877.435791,4295.384766,4084.615479,4231.794922,4155.897461,4078.461426,4008.205078,426.000000,4.000000,,,,0.000000,2.000000,4.000000,4.000000,4.000000,4.000000,4.000000,4.000000,4.000000,4.000000,4.000000,2.000000,4.000000,4.000000,1.000000,41.666668
1601229787.515476,127.000000,0.000000,3914.358887,4644.102539,4186.666504,4276.410156,3995.897461,4604.102539,3974.358887,3878.974365,4293.846191,4083.589844,4225.128418,4150.769043,4070.769287,4005.641113,49.000000,4.000000,,,,0.000000,2.000000,4.000000,4.000000,4.000000,4.000000,4.000000,4.000000,4.000000,4.000000,4.000000,2.000000,4.000000,4.000000,1.000000,41.666668
1601229787.523297,128.000000,0.000000,3911.281982,4634.358887,4187.692383,4277.948730,4001.538574,4620.000000,3993.846191,3888.205078,4307.179688,4096.922852,4218.974121,4155.384766,4083.076904,4003.589844,229.000000,4.000000,,,,0.000000,2.000000,4.000000,4.000000,4.000000,4.000000,4.000000,4.000000,4.000000,4.000000,4.000000,2.000000,4.000000,4.000000,1.000000,41.666668
1601229787.531117,0.000000,0.000000,3910.256348,4628.205078,4183.589844,4278.974121,4010.769287,4626.153809,3997.948730,3890.769287,4311.794922,4110.256348,4191.794922,4159.487305,4094.358887,4004.615479,383.000000,4.000000,,,,0.000000,2.000000,4.000000,4.000000,4.000000,4.000000,4.000000,4.000000,4.000000,4.000000,4.000000,2.000000,4.000000,4.000000,1.000000,41.666668
1601229787.538837,1.000000,0.000000,3904.615479,4631.282227,4175.384766,4282.563965,4012.820557,4617.948730,3988.718018,3886.666748,4309.230957,4117.436035,4162.563965,4163.589844,4099.487305,4009.230713,435.000000,4.000000,,,,0.000000,2.000000,4.000000,4.000000,4.000000,4.000000,4.000000,4.000000,4.000000,4.000000,4.000000,2.000000,4.000000,4.000000,1.000000,41.666668
1601229787.546658,2.000000,0.000000,3902.564209,4638.974121,4170.769043,4282.051270,4009.230713,4617.436035,3990.769287,3885.128174,4319.487305,4125.641113,4160.512695,4169.743652,4105.128418,4011.794922,383.000000,4.000000,,,,0.000000,2.000000,4.000000,4.000000,4.000000,4.000000,4.000000,4.000000,4.000000,4.000000,4.000000,2.000000,4.000000,4.000000,1.000000,41.666668
1601229787.554378,3.000000,0.000000,3906.153809,4644.615234,4168.717773,4276.410156,4010.769287,4617.436035,3991.281982,3883.076904,4327.692383,4131.794922,4165.641113,4171.794922,4106.153809,4009.230713,431.000000,4.000000,,,,0.000000,2.000000,4.000000,4.000000,4.000000,4.000000,4.000000,4.000000,4.000000,4.000000,4.000000,2.000000,4.000000,4.000000,1.000000,41.666668
1601229787.562199,4.000000,0.000000,3908.205078,4641.538574,4172.307617,4278.974121,4014.358887,4608.205078,3983.076904,3880.512939,4327.179688,4130.256348,4158.974121,4168.205078,4102.563965,4007.179443,458.000000,4.000000,,,,0.000000,2.000000,4.000000,4.000000,4.000000,4.000000,4.000000,4.000000,4.000000,4.000000,4.000000,2.000000,4.000000,4.000000,1.000000,41.666668
1601229787.569919,5.000000,0.000000,3911.794922,4638.461426,4183.589844,4287.692383,4010.769287,4615.384766,3988.718018,3887.692383,4333.333496,4131.794922,4160.512695,4167.692383,4108.205078,4009.743652,432.000000,4.000000,,,,0.000000,2.000000,4.000000,4.000000,4.000000,4.000000,4.000000,4.000000,4.000000,4.000000,4.000000,2.000000,4.000000,4.000000,1.000000,41.666668
1601229787.577740,6.000000,0.000000,3917.435791,4644.615234,4192.307617,4287.692383,4005.128174,4630.769043,4000.000000,3897.948730,4340.512695,4134.871582,4172.820313,4172.307617,4114.358887,4010.769287,441.000000,4.000000,,,,0.000000,2.000000,4.000000,4.000000,4.000000,4.000000,4.000000,4.000000,4.000000,4.000000,4.000000,2.000000,4.000000,4.000000,1.000000,41.666668
1601229787.585460,7.000000,0.000000,3914.871826,4644.102539,4186.153809,4279.487305,4005.641113,4623.077148,3994.871826,3897.948730,4330.769043,4123.589844,4170.769043,4168.205078,4103.077148,4007.179443,348.000000,4.000000,,,,0.000000,2.000000,4.000000,4.000000,4.000000,4.000000,4.000000,4.000000,4.000000,4.000000,4.000000,2.000000,4.000000,4.000000,1.000000,41.666668
1601229787.593380,8.000000,0.000000,3908.718018,4636.410156,4176.410156,4274.358887,4007.179443,4609.230957,3986.153809,3889.743652,4315.897461,4105.128418,4158.974121,4155.897461,4087.179443,4005.128174,406.000000,4.000000,,,,0.000000,2.000000,4.000000,4.000000,4.000000,4.000000,4.000000,4.000000,4.000000,4.000000,4.000000,2.000000,4.000000,4.000000,1.000000,41.666668
1601229787.601201,9.000000,0.000000,3909.230713,4634.358887,4175.897461,4271.282227,4002.051270,4612.307617,3986.666748,3883.076904,4308.205078,4098.461426,4154.871582,4151.794922,4081.538574,4001.538574,404.000000,4.000000,,,,0.000000,2.000000,4.000000,4.000000,4.000000,4.000000,4.000000,4.000000,4.000000,4.000000,4.000000,2.000000,4.000000,4.000000,1.000000,41.666668
1601229787.609021,10.000000,0.000000,3905.641113,4634.358887,4173.846191,4265.641113,4001.025635,4612.307617,3980.512939,3876.410156,4300.000000,4091.794922,4154.871582,4155.384766,4077.948730,3997.435791,426.000000,4.000000,,,,0.000000,2.000000,4.000000,4.000000,4.000000,4.000000,4.000000,4.000000,4.000000,4.000000,4.000000,2.000000,4.000000,4.000000,1.000000,41.666668
1601229787.616741,11.000000,0.000000,3895.384521,4639.487305,4165.128418,4268.717773,4007.179443,4602.051270,3971.794922,3868.205078,4290.256348,4084.615479,4150.769043,4150.769043,4066.666748,3993.846191,49.000000,4.000000,,,,0.000000,2.000000,4.000000,4.000000,4.000000,4.000000,4.000000,4.000000,4.000000,4.000000,4.000000,2.000000,4.000000,4.000000,1.000000,41.666668
1601229787.624662,12.000000,0.000000,3892.820557,4645.641113,4163.077148,4276.410156,4008.718018,4604.102539,3974.871826,3871.281982,4290.769043,4091.281982,4153.846191,4148.205078,4070.256348,3995.384521,229.000000,4.000000,,,,0.000000,2.000000,4.000000,4.000000,4.000000,4.000000,4.000000,4.000000,4.000000,4.000000,4.000000,2.000000,4.000000,4.000000,1.000000,41.666668
1601229787.632482,13.000000,0.000000,3904.102539,4645.128418,4176.410156,4278.461426,4006.153809,4620.512695,3988.718018,3886.153809,4310.769043,4112.820313,4169.743652,4164.102539,4093.846191,4000.000000,350.000000,4.000000,,,,0.000000,2.000000,4.000000,4.000000,4.000000,4.000000,4.000000,4.000000,4.000000,4.000000,4.000000,2.000000,4.000000,4.000000,1.000000,41.666668
1601229787.640402,14.000000,0.000000,3914.358887,4645.128418,4187.692383,4277.436035,4008.205078,4629.230957,4000.512939,3896.923096,4333.333496,4134.358887,4183.589844,4181.025879,4111.794922,4005.128174,426.000000,4.000000,,,,0.000000,2.000000,4.000000,4.000000,4.000000,4.000000,4.000000,4.000000,4.000000,4.000000,4.000000,2.000000,4.000000,4.000000,1.000000,41.666668
1601229787.648223,15.000000,0.000000,3912.820557,4649.230957,4185.128418,4279.487305,4010.769287,4627.692383,3998.974365,3896.410156,4335.897461,4136.410156,4185.128418,4177.436035,4113.333496,4008.718018,49.000000,4.000000,,,,0.000000,2.000000,4.000000,4.000000,4.000000,4.000000,4.000000,4.000000,4.000000,4.000000,4.000000,2.000000,4.000000,4.000000,1.000000,41.666668
1601229787.656143,16.000000,0.000000,3910.256348,4650.256348,4182.051270,4277.436035,4009.230713,4623.077148,3992.820557,3892.820557,4327.692383,4127.692383,4183.077148,4169.230957,4107.179688,4010.769287,0.000000,4.000000,,,,0.000000,2.000000,4.000000,4.000000,4.000000,4.000000,4.000000,4.000000,4.000000,4.000000,4.000000,2.000000,4.000000,4.000000,1.000000,41.666668
1601229787.663963,17.000000,0.000000,3911.281982,4647.692383,4182.563965,4269.230957,4005.128174,4615.384766,3992.820557,3893.846191,4328.717773,4121.538574,4181.538574,4170.256348,4101.025879,4011.281982,0.000000,4.000000,,,,0.000000,2.000000,4.000000,4.000000,4.000000,4.000000,4.000000,4.000000,4.000000,4.000000,4.000000,2.000000,4.000000,4.000000,1.000000,41.666668
1601229787.671884,18.000000,0.000000,3912.820557,4642.563965,4184.615234,4265.128418,3992.820557,4608.717773,3987.692383,3891.794922,4327.179688,4116.922852,4182.051270,4169.230957,4092.820557,4007.179443,0.000000,4.000000,,,,0.000000,2.000000,4.000000,4.000000,4.000000,4.000000,4.000000,4.000000,4.000000,4.000000,4.000000,2.000000,4.000000,4.000000,1.000000,41.666668
1601229787.679704,19.000000,0.000000,3911.794922,4628.717773,4185.128418,4264.102539,3983.589844,4603.077148,3977.948730,3884.615479,4313.333496,4106.153809,4175.897461,4166.153809,4081.538574,3998.974365,0.000000,4.000000,,,,0.000000,2.000000,4.000000,4.000000,4.000000,4.000000,4.000000,4.000000,4.000000,4.000000,4.000000,2.000000,4.000000,4.000000,1.000000,41.666668
1601229787.687524,20.000000,0.000000,3908.718018,4623.589844,4181.025879,4265.641113,3994.358887,4603.589844,3981.538574,3884.102539,4312.307617,4102.563965,4166.666504,4167.179688,4077.435791,3994.871826,0.000000,4.000000,,,,0.000000,2.000000,4.000000,4.000000,4.000000,4.000000,4.000000,4.000000,4.000000,4.000000,4.000000,2.000000,4.000000,4.000000,1.000000,41.666668
1601229787.695345,21.000000,0.000000,3903.589844,4627.692383,4174.871582,4256.410156,3999.487061,4606.153809,3984.102539,3887.179443,4315.897461,4104.615234,4167.692383,4161.538574,4070.769287,3997.435791,0.000000,4.000000,,,,0.000000,2.000000,4.000000,4.000000,4.000000,4.000000,4.000000,4.000000,4.000000,4.000000,4.000000,2.000000,4.000000,4.000000,1.000000,41.666668
1601229787.703065,22.000000,0.000000,3894.871826,4616.922852,4168.205078,4245.128418,3989.743652,4603.077148,3978.974365,3883.076904,4305.128418,4098.974121,4169.743652,4149.230957,4061.025635,3997.948730,0.000000,4.000000,,,,0.000000,2.000000,4.000000,4.000000,4.000000,4.000000,4.000000,4.000000,4.000000,4.000000,4.000000,2.000000,4.000000,4.000000,1.000000,41.666668
1601229787.710886,23.000000,0.000000,3893.333252,4608.717773,4164.615234,4255.897461,3989.743652,4603.077148,3986.153809,3882.051270,4305.641113,4102.563965,4167.179688,4153.333496,4072.820557,3998.461426,0.000000,4.000000,,,,0.000000,2.000000,4.000000,4.000000,4.000000,4.000000,4.000000,4.000000,4.000000,4.000000,4.000000,2.000000,4.000000,4.000000,1.000000,41.666668
1601229787.718606,24.000000,0.000000,3902.564209,4627.692383,4166.153809,4270.769043,3998.974365,4609.743652,3990.769287,3884.615479,4317.948730,4115.384766,4171.282227,4167.179688,4089.743652,4000.000000,0.000000,4.000000,,,,0.000000,2.000000,4.000000,4.000000,4.000000,4.000000,4.000000,4.000000,4.000000,4.000000,4.000000,2.000000,4.000000,4.000000,1.000000,41.666668
1601229787.726426,25.000000,0.000000,3913.333252,4646.666504,4174.871582,4268.717773,4004.102539,4615.384766,3984.615479,3882.564209,4317.436035,4118.974121,4182.563965,4169.230957,4089.230713,4001.025635,0.000000,4.000000,,,,0.000000,2.000000,4.000000,4.000000,4.000000,4.000000,4.000000,4.000000,4.000000,4.000000,4.000000,2.000000,4.000000,4.000000,1.000000,41.666668
1601229787.734147,26.000000,0.000000,3920.000000,4648.717773,4183.589844,4272.820313,4006.666748,4622.563965,3990.256348,3887.179443,4320.512695,4121.025879,4188.717773,4168.205078,4096.410156,4006.153809,0.000000,4.000000,,,,0.000000,2.000000,4.000000,4.000000,4.000000,4.000000,4.000000,4.000000,4.000000,4.000000,4.000000,2.000000,4.000000,4.000000,1.000000,41.666668
1601229787.741967,27.000000,0.000000,3918.974365,4650.769043,4183.589844,4283.077148,4008.205078,4625.641113,3995.897461,3892.307617,4327.692383,4125.128418,4187.692383,4171.794922,4106.153809,4008.718018,0.000000,4.000000,,,,0.000000,2.000000,4.000000,4.000000,4.000000,4.000000,4.000000,4.000000,4.000000,4.000000,4.000000,2.000000,4.000000,4.000000,1.000000,41.666668
1601229787.749688,28.000000,0.000000,3916.410156,4651.282227,4183.077148,4273.333496,4005.128174,4615.384766,3986.666748,3888.205078,4325.128418,4119.487305,4184.102539,4166.153809,4094.871826,4002.051270,0.000000,4.000000,,,,0.000000,2.000000,4.000000,4.000000,4.000000,4.000000,4.000000,4.000000,4.000000,4.000000,4.000000,2.000000,4.000000,4.000000,1.000000,41.666668
1601229787.757508,29.000000,0.000000,3909.743652,4640.512695,4178.461426,4257.948730,4000.000000,4613.333496,3983.589844,3889.743652,4324.615234,4117.436035,4183.077148,4155.897461,4084.102539,3997.435791,0.000000,4.000000,,,,0.000000,2.000000,4.000000,4.000000,4.000000,4.000000,4.000000,4.000000,4.000000,4.000000,4.000000,2.000000,4.000000,4.000000,1.000000,41.666668
1601229787.765229,30.000000,0.000000,3898.461426,4622.051270,4159.487305,4251.794922,3990.769287,4616.410156,3989.230713,3894.871826,4327.692383,4124.615234,4184.615234,4152.307617,4083.589844,3998.461426,0.000000,4.000000,,,,0.000000,2.000000,4.000000,4.000000,4.000000,4.000000,4.000000,4.000000,4.000000,4.000000,4.000000,2.000000,4.000000,4.000000,1.000000,41.666668
1601229787.773049,31.000000,0.000000,3891.281982,4612.307617,4151.282227,4245.641113,3984.615479,4609.743652,3988.205078,3895.384521,4329.230957,4127.692383,4180.512695,4150.256348,4077.948730,3994.358887,0.000000,4.000000,,,,0.000000,2.000000,4.000000,4.000000,4.000000,4.000000,4.000000,4.000000,4.000000,4.000000,4.000000,2.000000,4.000000,4.000000,1.000000,41.666668
1601229787.780769,32.000000,0.000000,3893.846191,4613.333496,4165.641113,4242.051270,3987.179443,4607.179688,3989.230713,3896.410156,4333.846191,4127.179688,4178.461426,4150.769043,4072.820557,3992.307617,0.000000,4.000000,,,,0.000000,2.000000,4.000000,4.000000,4.000000,4.000000,4.000000,4.000000,4.000000,4.000000,4.000000,2.000000,4.000000,4.000000,1.000000,41.666668
1601229787.788690,33.000000,0.000000,3894.871826,4614.358887,4166.666504,4245.128418,3982.564209,4609.230957,3985.641113,3890.256348,4326.153809,4116.922852,4177.948730,4149.230957,4071.794922,3993.333252,0.000000,4.000000,,,,0.000000,2.000000,4.000000,4.000000,4.000000,4.000000,4.000000,4.000000,4.000000,4.000000,4.000000,2.000000,4.000000,4.000000,1.000000,41.666668
1601229787.796511,34.000000,0.000000,3895.897461,4613.333496,4158.461426,4249.230957,3977.435791,4606.666504,3976.410156,3878.461426,4311.282227,4108.717773,4176.922852,4143.589844,4074.358887,3991.794922,0.000000,4.000000,,,,0.000000,2.000000,4.000000,4.000000,4.000000,4.000000,4.000000,4.000000,4.000000,4.000000,4.000000,2.000000,4.000000,4.000000,1.000000,41.666668
1601229787.804331,35.000000,0.000000,3906.666748,4618.974121,4175.384766,4248.205078,3986.153809,4611.282227,3981.538574,3880.512939,4319.487305,4127.692383,4186.153809,4146.666504,4088.205078,3992.820557,0.000000,4.000000,,,,0.000000,2.000000,4.000000,4.000000,4.000000,4.000000,4.000000,4.000000,4.000000,4.000000,4.000000,2.000000,4.000000,4.000000,1.000000,41.666668
1601229787.812152,36.000000,0.000000,3917.435791,4631.794922,4190.769043,4256.410156,3996.410156,4626.153809,3995.384521,3894.358887,4336.922852,4153.846191,4201.538574,4163.077148,4107.692383,4001.025635,0.000000,4.000000,,,,0.000000,2.000000,4.000000,4.000000,4.000000,4.000000,4.000000,4.000000,4.000000,4.000000,4.000000,2.000000,4.000000,4.000000,1.000000,41.666668
1601229787.819872,37.000000,0.000000,3923.589844,4637.948730,4184.615234,4275.897461,4001.538574,4633.333496,3999.487061,3902.564209,4344.615234,4157.948730,4208.205078,4176.410156,4120.512695,4005.128174,0.000000,4.000000,,,,0.000000,2.000000,4.000000,4.000000,4.000000,4.000000,4.000000,4.000000,4.000000,4.000000,4.000000,2.000000,4.000000,4.000000,1.000000,41.666668
1601229787.827793,38.000000,0.000000,3923.589844,4636.410156,4182.563965,4278.974121,4001.025635,4629.230957,3998.461426,3903.076904,4347.692383,4156.410156,4206.666504,4176.410156,4120.512695,4003.589844,0.000000,4.000000,,,,0.000000,2.000000,4.000000,4.000000,4.000000,4.000000,4.000000,4.000000,4.000000,4.000000,4.000000,2.000000,4.000000,4.000000,1.000000,41.666668
1601229787.835613,39.000000,0.000000,3914.871826,4634.871582,4186.153809,4259.487305,3999.487061,4623.077148,3999.487061,3903.589844,4347.692383,4158.974121,4202.563965,4170.256348,4111.794922,4008.718018,0.000000,4.000000,,,,0.000000,2.000000,4.000000,4.000000,4.000000,4.000000,4.000000,4.000000,4.000000,4.000000,4.000000,2.000000,4.000000,4.000000,1.000000,41.666668
1601229787.843434,40.000000,0.000000,3917.435791,4635.384766,4185.128418,4255.897461,4000.000000,4621.538574,3999.487061,3902.051270,4348.205078,4154.871582,4200.512695,4169.743652,4106.153809,4024.102539,0.000000,4.000000,,,,0.000000,2.000000,4.000000,4.000000,4.000000,4.000000,4.000000,4.000000,4.000000,4.000000,4.000000,2.000000,4.000000,4.000000,1.000000,41.666668
1601229787.851354,41.000000,0.000000,3925.128174,4636.922852,4186.666504,4274.871582,4007.692383,4631.794922,4007.179443,3905.128174,4354.871582,4159.487305,4209.743652,4175.384766,4113.333496,4033.846191,0.000000,4.000000,,,,0.000000,2.000000,4.000000,4.000000,4.000000,4.000000,4.000000,4.000000,4.000000,4.000000,4.000000,2.000000,4.000000,4.000000,1.000000,41.666668
1601229787.859175,42.000000,0.000000,3917.948730,4637.948730,4187.179688,4277.436035,4009.230713,4635.897461,4011.281982,3909.230713,4355.897461,4169.743652,4214.358887,4174.358887,4116.922852,4028.718018,0.000000,4.000000,,,,0.000000,2.000000,4.000000,4.000000,4.000000,4.000000,4.000000,4.000000,4.000000,4.000000,4.000000,2.000000,4.000000,4.000000,1.000000,41.666668
1601229787.867095,43.000000,0.000000,3912.307617,4640.000000,4186.153809,4265.641113,4007.692383,4620.512695,4001.025635,3901.025635,4345.641113,4161.025879,4201.025879,4167.179688,4104.102539,4017.435791,0.000000,4.000000,,,,0.000000,2.000000,4.000000,4.000000,4.000000,4.000000,4.000000,4.000000,4.000000,4.000000,4.000000,2.000000,4.000000,4.000000,1.000000,41.666668
1601229787.874915,44.000000,0.000000,3920.000000,4641.025879,4186.666504,4267.692383,4009.230713,4617.436035,3997.948730,3892.820557,4332.307617,4148.717773,4197.436035,4162.563965,4093.333252,4009.230713,0.000000,4.000000,,,,0.000000,2.000000,4.000000,4.000000,4.000000,4.000000,4.000000,4.000000,4.000000,4.000000,4.000000,2.000000,4.000000,4.000000,1.000000,41.666668
1601229787.882835,45.000000,0.000000,3925.641113,4646.666504,4186.153809,4277.436035,4011.281982,4630.769043,4002.564209,3892.820557,4325.128418,4150.256348,4204.615234,4162.563965,4101.025879,4003.076904,0.000000,4.000000,,,,0.000000,2.000000,4.000000,4.000000,4.000000,4.000000,4.000000,4.000000,4.000000,4.000000,4.000000,2.000000,4.000000,4.000000,1.000000,41.666668
1601229787.890656,46.000000,0.000000,3926.153809,4651.794922,4187.179688,4279.487305,4012.820557,4633.333496,4003.589844,3894.871826,4327.179688,4151.282227,4202.563965,4164.615234,4106.666504,3998.974365,0.000000,4.000000,,,,0.000000,2.000000,4.000000,4.000000,4.000000,4.000000,4.000000,4.000000,4.000000,4.000000,4.000000,2.000000,4.000000,4.000000,1.000000,41.666668
1601229787.898576,47.000000,0.000000,3921.025635,4650.769043,4186.153809,4273.846191,4012.820557,4628.205078,4002.051270,3892.307617,4329.743652,4144.102539,4196.410156,4164.102539,4093.333252,3998.974365,0.000000,4.000000,,,,0.000000,2.000000,4.000000,4.000000,4.000000,4.000000,4.000000,4.000000,4.000000,4.000000,4.000000,2.000000,4.000000,4.000000,1.000000,41.666668
1601229787.906396,48.000000,0.000000,3914.358887,4645.128418,4184.615234,4264.102539,4006.666748,4630.256348,4002.051270,3893.333252,4326.153809,4145.641113,4197.948730,4159.487305,4092.820557,4000.000000,0.000000,4.000000,,,,0.000000,2.000000,4.000000,4.000000,4.000000,4.000000,4.000000,4.000000,4.000000,4.000000,4.000000,2.000000,4.000000,4.000000,1.000000,41.666668
1601229787.914117,49.000000,0.000000,3919.487061,4633.846191,4186.153809,4256.922852,3998.974365,4630.256348,4003.076904,3896.410156,4329.743652,4153.333496,4203.077148,4161.538574,4111.282227,4002.051270,0.000000,4.000000,,,,0.000000,2.000000,4.000000,4.000000,4.000000,4.000000,4.000000,4.000000,4.000000,4.000000,4.000000,2.000000,4.000000,4.000000,1.000000,41.666668
1601229787.921937,50.000000,0.000000,3921.538574,4633.333496,4183.589844,4267.692383,3995.897461,4624.102539,4003.589844,3895.384521,4337.948730,4151.794922,4202.563965,4165.641113,4109.230957,4005.641113,0.000000,4.000000,,,,0.000000,2.000000,4.000000,4.000000,4.000000,4.000000,4.000000,4.000000,4.000000,4.000000,4.000000,2.000000,4.000000,4.000000,1.000000,41.666668
1601229787.929658,51.000000,0.000000,3917.948730,4647.179688,4180.512695,4278.461426,3997.948730,4624.102539,4003.589844,3896.923096,4336.922852,4151.794922,4200.000000,4164.615234,4090.769287,4005.128174,0.000000,4.000000,,,,0.000000,2.000000,4.000000,4.000000,4.000000,4.000000,4.000000,4.000000,4.000000,4.000000,4.000000,2.000000,4.000000,4.000000,1.000000,41.666668
1601229787.937478,52.000000,0.000000,3921.025635,4648.717773,4187.179688,4274.871582,4001.025635,4628.717773,4003.589844,3904.102539,4336.922852,4161.025879,4202.563965,4166.666504,4098.461426,4002.051270,0.000000,4.000000,,,,0.000000,2.000000,4.000000,4.000000,4.000000,4.000000,4.000000,4.000000,4.000000,4.000000,4.000000,2.000000,4.000000,4.000000,1.000000,41.666668
1601229787.945199,53.000000,0.000000,3920.000000,4634.871582,4189.230957,4276.922852,3999.487061,4625.641113,4002.051270,3905.128174,4339.487305,4161.538574,4207.179688,4165.128418,4107.692383,4005.641113,0.000000,4.000000,,,,0.000000,2.000000,4.000000,4.000000,4.000000,4.000000,4.000000,4.000000,4.000000,4.000000,4.000000,2.000000,4.000000,4.000000,1.000000,41.666668
1601229787.953019,54.000000,0.000000,3909.230713,4631.794922,4183.589844,4288.205078,3995.897461,4616.922852,4001.538574,3897.435791,4334.358887,4153.333496,4202.051270,4154.358887,4096.410156,4010.256348,0.000000,4.000000,,,,0.000000,2.000000,4.000000,4.000000,4.000000,4.000000,4.000000,4.000000,4.000000,4.000000,4.000000,2.000000,4.000000,4.000000,1.000000,41.666668
1601229787.960739,55.000000,0.000000,3909.230713,4637.436035,4183.077148,4289.230957,4001.025635,4625.128418,4008.718018,3896.923096,4333.333496,4158.461426,4200.000000,4153.333496,4099.487305,4010.769287,0.000000,4.000000,,,,0.000000,2.000000,4.000000,4.000000,4.000000,4.000000,4.000000,4.000000,4.000000,4.000000,4.000000,2.000000,4.000000,4.000000,1.000000,41.666668
1601229787.968660,56.000000,0.000000,3918.461426,4634.871582,4187.179688,4285.641113,4004.615479,4634.871582,4011.794922,3900.512939,4336.410156,4167.179688,4211.282227,4161.025879,4114.871582,4011.281982,0.000000,4.000000,,,,0.000000,2.000000,4.000000,4.000000,4.000000,4.000000,4.000000,4.000000,4.000000,4.000000,4.000000,2.000000,4.000000,4.000000,1.000000,41.666668
1601229787.976480,57.000000,0.000000,3924.615479,4638.461426,4186.666504,4293.333496,4003.589844,4623.589844,4003.589844,3890.769287,4325.128418,4161.025879,4213.846191,4156.922852,4107.692383,4013.846191,0.000000,4.000000,,,,0.000000,2.000000,4.000000,4.000000,4.000000,4.000000,4.000000,4.000000,4.000000,4.000000,4.000000,2.000000,4.000000,4.000000,1.000000,41.666668
1601229787.984400,58.000000,0.000000,3926.153809,4649.743652,4185.641113,4296.922852,4011.794922,4618.461426,4001.025635,3883.076904,4314.871582,4154.358887,4204.102539,4156.922852,4090.256348,4010.256348,0.000000,4.000000,,,,0.000000,2.000000,4.000000,4.000000,4.000000,4.000000,4.000000,4.000000,4.000000,4.000000,4.000000,2.000000,4.000000,4.000000,1.000000,41.666668
1601229787.992221,59.000000,0.000000,3920.512939,4653.333496,4186.153809,4296.410156,4017.435791,4629.230957,4007.179443,3889.743652,4324.102539,4156.922852,4198.974121,4163.589844,4090.769287,4003.589844,0.000000,4.000000,,,,0.000000,2.000000,4.000000,4.000000,4.000000,4.000000,4.000000,4.000000,4.000000,4.000000,4.000000,2.000000,4.000000,4.000000,1.000000,41.666668
1601229788.000141,60.000000,0.000000,3920.512939,4647.692383,4186.153809,4294.358887,4015.384521,4635.384766,4008.718018,3901.025635,4338.974121,4163.589844,4207.692383,4161.538574,4103.589844,4005.128174,0.000000,4.000000,,,,0.000000,2.000000,4.000000,4.000000,4.000000,4.000000,4.000000,4.000000,4.000000,4.000000,4.000000,2.000000,4.000000,4.000000,1.000000,41.666668
1601229788.007961,61.000000,0.000000,3928.205078,4643.589844,4186.153809,4286.153809,4014.871826,4636.410156,4009.230713,3904.102539,4343.077148,4171.282227,4215.384766,4163.077148,4114.358887,4010.256348,0.000000,4.000000,,,,0.000000,2.000000,4.000000,4.000000,4.000000,4.000000,4.000000,4.000000,4.000000,4.000000,4.000000,2.000000,4.000000,4.000000,1.000000,41.666668
1601229788.015882,62.000000,0.000000,3927.179443,4647.692383,4186.153809,4286.666504,4012.307617,4635.384766,4008.718018,3897.948730,4341.025879,4172.307617,4213.333496,4169.230957,4110.769043,4009.230713,0.000000,4.000000,,,,0.000000,2.000000,4.000000,4.000000,4.000000,4.000000,4.000000,4.000000,4.000000,4.000000,4.000000,2.000000,4.000000,4.000000,1.000000,41.666668
1601229788.023702,63.000000,0.000000,3924.102539,4650.256348,4186.153809,4291.794922,4007.692383,4630.769043,4003.589844,3894.358887,4334.871582,4167.692383,4209.743652,4168.205078,4098.461426,4009.230713,0.000000,4.000000,,,,0.000000,2.000000,4.000000,4.000000,4.000000,4.000000,4.000000,4.000000,4.000000,4.000000,4.000000,2.000000,4.000000,4.000000,1.000000,41.666668
1601229788.031622,64.000000,0.000000,3923.589844,4638.461426,4186.153809,4282.051270,4008.205078,4621.025879,3998.974365,3899.487061,4333.333496,4170.256348,4210.769043,4164.615234,4100.512695,4013.333252,383.000000,4.000000,,,,0.000000,2.000000,4.000000,4.000000,4.000000,4.000000,4.000000,4.000000,4.000000,4.000000,4.000000,2.000000,4.000000,4.000000,1.000000,41.666668
1601229788.039443,65.000000,0.000000,3919.487061,4625.128418,4186.153809,4275.384766,4013.333252,4620.512695,4003.076904,3903.076904,4341.025879,4184.102539,4214.871582,4167.692383,4113.846191,4010.769287,435.000000,4.000000,,,,0.000000,2.000000,4.000000,4.000000,4.000000,4.000000,4.000000,4.000000,4.000000,4.000000,4.000000,2.000000,4.000000,4.000000,1.000000,41.666668
1601229788.047363,66.000000,0.000000,3916.923096,4633.333496,4186.153809,4284.615234,4017.435791,4630.256348,4014.358887,3904.102539,4347.692383,4200.000000,4218.974121,4168.205078,4118.461426,4007.692383,383.000000,4.000000,,,,0.000000,2.000000,4.000000,4.000000,4.000000,4.000000,4.000000,4.000000,4.000000,4.000000,4.000000,2.000000,4.000000,4.000000,1.000000,41.666668
1601229788.055183,67.000000,0.000000,3920.000000,4646.666504,4186.153809,4287.179688,4013.846191,4632.820313,4016.923096,3905.641113,4349.743652,4208.717773,4222.563965,4168.205078,4117.436035,4011.794922,431.000000,4.000000,,,,0.000000,2.000000,4.000000,4.000000,4.000000,4.000000,4.000000,4.000000,4.000000,4.000000,4.000000,2.000000,4.000000,4.000000,1.000000,41.666668
1601229788.062904,68.000000,0.000000,3921.538574,4640.512695,4185.641113,4280.000000,4007.179443,4630.769043,4011.281982,3903.589844,4353.846191,4206.666504,4226.666504,4168.717773,4124.102539,4013.333252,458.000000,4.000000,,,,0.000000,2.000000,4.000000,4.000000,4.000000,4.000000,4.000000,4.000000,4.000000,4.000000,4.000000,2.000000,4.000000,4.000000,1.000000,41.666668
1601229788.070724,69.000000,0.000000,3922.051270,4629.743652,4185.641113,4280.000000,4010.769287,4639.487305,4010.769287,3902.051270,4357.436035,4209.230957,4227.692383,4169.743652,4133.333496,4010.256348,432.000000,4.000000,,,,0.000000,2.000000,4.000000,4.000000,4.000000,4.000000,4.000000,4.000000,4.000000,4.000000,4.000000,2.000000,4.000000,4.000000,1.000000,41.666668
1601229788.078445,70.000000,0.000000,3922.564209,4628.205078,4186.153809,4282.563965,4016.410156,4644.102539,4019.487061,3904.102539,4356.410156,4219.487305,4225.128418,4169.743652,4138.974121,4009.230713,441.000000,4.000000,,,,0.000000,2.000000,4.000000,4.000000,4.000000,4.000000,4.000000,4.000000,4.000000,4.000000,4.000000,2.000000,4.000000,4.000000,1.000000,41.666668
1601229788.086265,71.000000,0.000000,3921.025635,4629.230957,4183.077148,4280.000000,4014.358887,4633.333496,4018.461426,3905.641113,4351.794922,4220.512695,4222.051270,4167.692383,4133.846191,4011.794922,348.000000,4.000000,,,,0.000000,2.000000,4.000000,4.000000,4.000000,4.000000,4.000000,4.000000,4.000000,4.000000,4.000000,2.000000,4.000000,4.000000,1.000000,41.666668
1601229788.093985,72.000000,0.000000,3923.589844,4631.282227,4182.563965,4277.436035,4010.769287,4632.820313,4012.307617,3904.102539,4351.282227,4207.179688,4222.051270,4168.205078,4126.666504,4013.333252,406.000000,4.000000,,,,0.000000,2.000000,4.000000,4.000000,4.000000,4.000000,4.000000,4.000000,4.000000,4.000000,4.000000,2.000000,4.000000,4.000000,1.000000,41.666668
1601229788.101806,73.000000,0.000000,3928.205078,4635.384766,4192.307617,4274.358887,4007.692383,4642.051270,4017.435791,3906.153809,4356.922852,4205.128418,4223.589844,4168.205078,4129.743652,4010.256348,404.000000,4.000000,,,,0.000000,2.000000,4.000000,4.000000,4.000000,4.000000,4.000000,4.000000,4.000000,4.000000,4.000000,2.000000,4.000000,4.000000,1.000000,41.666668
1601229788.109526,74.000000,0.000000,3926.666748,4634.871582,4199.487305,4273.846191,4008.205078,4638.974121,4016.923096,3910.256348,4357.436035,4216.410156,4224.102539,4169.743652,4131.282227,4012.307617,426.000000,4.000000,,,,0.000000,2.000000,4.000000,4.000000,4.000000,4.000000,4.000000,4.000000,4.000000,4.000000,4.000000,2.000000,4.000000,4.000000,1.000000,41.666668
1601229788.117347,75.000000,0.000000,3926.666748,4638.974121,4195.897461,4287.692383,4015.384521,4633.846191,4009.230713,3912.820557,4354.871582,4219.487305,4226.666504,4176.410156,4126.153809,4016.923096,49.000000,4.000000,,,,0.000000,2.000000,4.000000,4.000000,4.000000,4.000000,4.000000,4.000000,4.000000,4.000000,4.000000,2.000000,4.000000,4.000000,1.000000,41.666668
1601229788.125067,76.000000,0.000000,3930.769287,4643.077148,4195.384766,4295.384766,4013.846191,4628.717773,4005.128174,3906.666748,4351.794922,4211.794922,4231.282227,4176.410156,4125.641113,4016.923096,229.000000,4.000000,,,,0.000000,2.000000,4.000000,4.000000,4.000000,4.000000,4.000000,4.000000,4.000000,4.000000,4.000000,2.000000,4.000000,4.000000,1.000000,41.666668
1601229788.132887,77.000000,0.000000,3934.358887,4634.358887,4200.000000,4284.615234,4004.102539,4620.512695,4002.051270,3892.820557,4346.153809,4213.333496,4232.307617,4174.871582,4131.794922,4017.435791,350.000000,4.000000,,,,0.000000,2.000000,4.000000,4.000000,4.000000,4.000000,4.000000,4.000000,4.000000,4.000000,4.000000,2.000000,4.000000,4.000000,1.000000,41.666668
1601229788.140608,78.000000,0.000000,3941.025635,4634.358887,4202.051270,4290.256348,4003.076904,4628.205078,4006.153809,3895.384521,4348.205078,4226.666504,4233.333496,4183.077148,4138.974121,4023.076904,426.000000,4.000000,,,,0.000000,2.000000,4.000000,4.000000,4.000000,4.000000,4.000000,4.000000,4.000000,4.000000,4.000000,2.000000,4.000000,4.000000,1.000000,41.666668
1601229788.148528,79.000000,0.000000,3946.666748,4651.794922,4200.000000,4304.615234,4011.794922,4643.589844,4016.410156,3908.205078,4357.948730,4235.384766,4238.974121,4190.256348,4146.666504,4024.615479,49.000000,4.000000,,,,0.000000,2.000000,4.000000,4.000000,4.000000,4.000000,4.000000,4.000000,4.000000,4.000000,4.000000,2.000000,4.000000,4.000000,1.000000,41.666668
1601229788.156349,80.000000,0.000000,3942.051270,4656.922852,4198.461426,4293.333496,4014.358887,4639.487305,4016.923096,3912.820557,4362.563965,4240.512695,4244.102539,4186.666504,4148.205078,4020.000000,229.000000,4.000000,,,,0.000000,2.000000,4.000000,4.000000,4.000000,4.000000,4.000000,4.000000,4.000000,4.000000,4.000000,2.000000,4.000000,4.000000,1.000000,41.666668
1601229788.164169,81.000000,0.000000,3933.846191,4648.717773,4197.948730,4285.128418,4012.820557,4635.384766,4014.871826,3911.794922,4367.692383,4248.717773,4246.153809,4185.641113,4144.102539,4016.410156,350.000000,4.000000,,,,0.000000,2.000000,4.000000,4.000000,4.000000,4.000000,4.000000,4.000000,4.000000,4.000000,4.000000,2.000000,4.000000,4.000000,1.000000,41.666668
1601229788.171889,82.000000,0.000000,3929.743652,4643.589844,4197.948730,4288.205078,4010.769287,4645.128418,4026.666748,3913.333252,4377.436035,4252.820313,4247.179688,4184.102539,4146.666504,4015.384521,426.000000,4.000000,,,,0.000000,2.000000,4.000000,4.000000,4.000000,4.000000,4.000000,4.000000,4.000000,4.000000,4.000000,2.000000,4.000000,4.000000,1.000000,41.666668
1601229788.179810,83.000000,0.000000,3927.692383,4637.436035,4198.974121,4280.000000,4002.564209,4640.512695,4025.641113,3912.820557,4371.282227,4248.205078,4241.025879,4179.487305,4147.692383,4017.435791,49.000000,4.000000,,,,0.000000,2.000000,4.000000,4.000000,4.000000,4.000000,4.000000,4.000000,4.000000,4.000000,4.000000,2.000000,4.000000,4.000000,1.000000,41.666668
1601229788.187630,84.000000,0.000000,3926.666748,4635.384766,4197.436035,4278.974121,3998.461426,4626.666504,4011.281982,3906.666748,4356.410156,4240.512695,4235.897461,4178.974121,4137.436035,4021.025635,229.000000,4.000000,,,,0.000000,2.000000,4.000000,4.000000,4.000000,4.000000,4.000000,4.000000,4.000000,4.000000,4.000000,2.000000,4.000000,4.000000,1.000000,41.666668
1601229788.195550,85.000000,0.000000,3926.153809,4639.487305,4192.820313,4290.256348,4004.615479,4631.282227,4008.718018,3903.589844,4354.871582,4236.922852,4241.538574,4176.922852,4129.743652,4020.512939,350.000000,4.000000,,,,0.000000,2.000000,4.000000,4.000000,4.000000,4.000000,4.000000,4.000000,4.000000,4.000000,4.000000,2.000000,4.000000,4.000000,1.000000,41.666668
1601229788.203371,86.000000,0.000000,3930.769287,4639.487305,4195.384766,4290.256348,4006.666748,4633.846191,4010.769287,3904.102539,4358.461426,4238.461426,4248.205078,4179.487305,4137.948730,4019.487061,426.000000,4.000000,,,,0.000000,2.000000,4.000000,4.000000,4.000000,4.000000,4.000000,4.000000,4.000000,4.000000,4.000000,2.000000,4.000000,4.000000,1.000000,41.666668
1601229788.211291,87.000000,0.000000,3940.000000,4642.563965,4204.615234,4282.051270,3999.487061,4622.563965,4002.564209,3903.589844,4353.846191,4237.948730,4247.692383,4186.153809,4138.461426,4018.974365,49.000000,4.000000,,,,0.000000,2.000000,4.000000,4.000000,4.000000,4.000000,4.000000,4.000000,4.000000,4.000000,4.000000,2.000000,4.000000,4.000000,1.000000,41.666668
1601229788.219111,88.000000,0.000000,3943.589844,4651.794922,4206.666504,4287.179688,4004.615479,4619.487305,3995.897461,3899.487061,4347.179688,4234.358887,4246.666504,4187.179688,4129.743652,4020.000000,229.000000,4.000000,,,,0.000000,2.000000,4.000000,4.000000,4.000000,4.000000,4.000000,4.000000,4.000000,4.000000,4.000000,2.000000,4.000000,4.000000,1.000000,41.666668
1601229788.227032,89.000000,0.000000,3941.538574,4657.436035,4198.974121,4297.436035,4014.358887,4623.077148,3998.461426,3896.410156,4344.615234,4234.871582,4248.717773,4183.589844,4134.358887,4023.589844,350.000000,4.000000,,,,0.000000,2.000000,4.000000,4.000000,4.000000,4.000000,4.000000,4.000000,4.000000,4.000000,4.000000,2.000000,4.000000,4.000000,1.000000,41.666668
1601229788.234852,90.000000,0.000000,3939.487061,4651.282227,4198.461426,4288.717773,4009.743652,4627.692383,4003.589844,3899.487061,4349.230957,4238.461426,4248.717773,4182.051270,4141.025879,4021.025635,426.000000,4.000000,,,,0.000000,2.000000,4.000000,4.000000,4.000000,4.000000,4.000000,4.000000,4.000000,4.000000,4.000000,2.000000,4.000000,4.000000,1.000000,41.666668
1601229788.242572,91.000000,0.000000,3939.487061,4638.974121,4200.512695,4274.871582,4003.589844,4637.436035,4005.641113,3900.000000,4352.307617,4238.974121,4243.589844,4184.615234,4133.333496,4015.897461,49.000000,4.000000,,,,0.000000,2.000000,4.000000,4.000000,4.000000,4.000000,4.000000,4.000000,4.000000,4.000000,4.000000,2.000000,4.000000,4.000000,1.000000,41.666668
