title:your record name, start timestamp:1601229880.919653, stop timestamp:1601229883.938332, headset type:EPOC, headset serial:29869923, headset firmware:1e00, subject name:alzaabi.su, channels:38, sampling rate:128, samples:387       , version:2.0
Timestamp,EEG.Counter,EEG.Interpolated,EEG.AF3,EEG.F7,EEG.F3,EEG.FC5,EEG.T7,EEG.P7,EEG.O1,EEG.O2,EEG.P8,EEG.T8,EEG.FC6,EEG.F4,EEG.F8,EEG.AF4,EEG.RawCq,EEG.Battery,MarkerIndex,MarkerType,MarkerValueInt,EEG.MarkerHardware,CQ.AF3,CQ.F7,CQ.F3,CQ.FC5,CQ.T7,CQ.P7,CQ.O1,CQ.O2,CQ.P8,CQ.T8,CQ.FC6,CQ.F4,CQ.F8,CQ.AF4,CQ.Overall
1601229880.919653,74.000000,0.000000,3907.179443,4650.769043,4157.948730,4281.538574,3997.435791,4620.512695,3982.051270,3876.410156,4245.641113,4003.589844,4254.871582,4165.128418,4078.974365,4055.384521,426.000000,4.000000,,,,0.000000,2.000000,4.000000,4.000000,4.000000,4.000000,4.000000,4.000000,4.000000,4.000000,4.000000,2.000000,4.000000,4.000000,1.000000,41.666668
1601229880.927588,75.000000,0.000000,3909.743652,4650.769043,4161.025879,4276.922852,3996.923096,4626.666504,3974.358887,3876.923096,4251.282227,4009.743652,4259.487305,4159.487305,4087.179443,4052.307617,52.000000,4.000000,,,,0.000000,2.000000,4.000000,4.000000,4.000000,4.000000,4.000000,4.000000,4.000000,4.000000,4.000000,2.000000,4.000000,4.000000,1.000000,41.666668
1601229880.935422,76.000000,0.000000,3911.281982,4646.153809,4157.948730,4275.897461,3984.615479,4621.025879,3980.512939,3880.512939,4253.333496,4007.692383,4255.384766,4151.282227,4093.846191,4030.769287,235.000000,4.000000,,,,0.000000,2.000000,4.000000,4.000000,4.000000,4.000000,4.000000,4.000000,4.000000,4.000000,4.000000,2.000000,4.000000,4.000000,1.000000,41.666668
1601229880.943157,77.000000,0.000000,3907.692383,4645.641113,4151.282227,4276.922852,3992.820557,4609.743652,3984.102539,3877.435791,4244.615234,4004.102539,4253.846191,4157.436035,4088.205078,4017.435791,352.000000,4.000000,,,,0.000000,2.000000,4.000000,4.000000,4.000000,4.000000,4.000000,4.000000,4.000000,4.000000,4.000000,2.000000,4.000000,4.000000,1.000000,41.666668
1601229880.950991,78.000000,0.000000,3910.256348,4652.820313,4155.384766,4277.436035,4005.641113,4620.000000,3980.000000,3876.410156,4246.666504,4010.769287,4263.589844,4170.256348,4085.128174,4021.025635,426.000000,4.000000,,,,0.000000,2.000000,4.000000,4.000000,4.000000,4.000000,4.000000,4.000000,4.000000,4.000000,4.000000,2.000000,4.000000,4.000000,1.000000,41.666668
1601229880.958725,79.000000,0.000000,3916.410156,4657.948730,4168.205078,4284.102539,3994.871826,4631.282227,3985.128174,3876.923096,4252.307617,4014.871826,4267.692383,4171.794922,4080.512939,4025.128174,52.000000,4.000000,,,,0.000000,2.000000,4.000000,4.000000,4.000000,4.000000,4.000000,4.000000,4.000000,4.000000,4.000000,2.000000,4.000000,4.000000,1.000000,41.666668
1601229880.966559,80.000000,0.000000,3914.871826,4661.025879,4170.256348,4288.205078,3995.384521,4622.051270,3990.256348,3876.410156,4247.692383,4009.743652,4257.948730,4163.589844,4084.615479,4023.589844,235.000000,4.000000,,,,0.000000,2.000000,4.000000,4.000000,4.000000,4.000000,4.000000,4.000000,4.000000,4.000000,4.000000,2.000000,4.000000,4.000000,1.000000,41.666668
1601229880.974293,81.000000,0.000000,3911.281982,4665.641113,4164.102539,4286.153809,4011.794922,4614.358887,3988.718018,3881.025635,4247.179688,4007.692383,4255.897461,4154.871582,4101.025879,4020.000000,352.000000,4.000000,,,,0.000000,2.000000,4.000000,4.000000,4.000000,4.000000,4.000000,4.000000,4.000000,4.000000,4.000000,2.000000,4.000000,4.000000,1.000000,41.666668
1601229880.982126,82.000000,0.000000,3911.794922,4662.563965,4166.153809,4283.589844,4012.307617,4621.025879,3995.897461,3888.718018,4255.897461,4009.230713,4260.000000,4149.743652,4099.487305,4017.948730,426.000000,4.000000,,,,0.000000,2.000000,4.000000,4.000000,4.000000,4.000000,4.000000,4.000000,4.000000,4.000000,4.000000,2.000000,4.000000,4.000000,1.000000,41.666668
1601229880.989858,83.000000,0.000000,3915.384521,4657.436035,4170.769043,4286.153809,4011.794922,4633.846191,4004.102539,3892.820557,4265.128418,4010.769287,4260.000000,4148.717773,4090.256348,4020.000000,52.000000,4.000000,,,,0.000000,2.000000,4.000000,4.000000,4.000000,4.000000,4.000000,4.000000,4.000000,4.000000,4.000000,2.000000,4.000000,4.000000,1.000000,41.666668
1601229880.997690,84.000000,0.000000,3913.846191,4659.487305,4163.077148,4291.282227,4014.358887,4638.974121,3996.923096,3891.281982,4266.666504,4011.281982,4261.538574,4149.743652,4090.769287,4022.051270,235.000000,4.000000,,,,0.000000,2.000000,4.000000,4.000000,4.000000,4.000000,4.000000,4.000000,4.000000,4.000000,4.000000,2.000000,4.000000,4.000000,1.000000,41.666668
1601229881.005423,85.000000,0.000000,3909.230713,4656.410156,4152.307617,4286.153809,4004.102539,4635.384766,3987.692383,3884.102539,4258.461426,4010.769287,4262.563965,4148.717773,4081.025635,4014.871826,352.000000,4.000000,,,,0.000000,2.000000,4.000000,4.000000,4.000000,4.000000,4.000000,4.000000,4.000000,4.000000,4.000000,2.000000,4.000000,4.000000,1.000000,41.666668
1601229881.013256,86.000000,0.000000,3908.718018,4644.615234,4153.846191,4273.846191,3993.333252,4631.794922,3988.205078,3874.358887,4254.358887,4014.871826,4259.487305,4147.179688,4071.794922,4010.769287,426.000000,4.000000,,,,0.000000,2.000000,4.000000,4.000000,4.000000,4.000000,4.000000,4.000000,4.000000,4.000000,4.000000,2.000000,4.000000,4.000000,1.000000,41.666668
1601229881.020988,87.000000,0.000000,3910.769287,4642.563965,4159.487305,4268.205078,3995.384521,4627.692383,3983.076904,3872.307617,4252.820313,4011.794922,4249.743652,4140.000000,4078.974365,4012.307617,52.000000,4.000000,,,,0.000000,2.000000,4.000000,4.000000,4.000000,4.000000,4.000000,4.000000,4.000000,4.000000,4.000000,2.000000,4.000000,4.000000,1.000000,41.666668
1601229881.028819,88.000000,0.000000,3909.743652,4649.230957,4156.410156,4267.179688,4000.512939,4625.641113,3978.461426,3874.358887,4241.538574,3997.948730,4246.666504,4140.000000,4082.051270,4012.307617,235.000000,4.000000,,,,0.000000,2.000000,4.000000,4.000000,4.000000,4.000000,4.000000,4.000000,4.000000,4.000000,4.000000,2.000000,4.000000,4.000000,1.000000,41.666668
1601229881.036551,89.000000,0.000000,3907.692383,4648.717773,4153.333496,4267.692383,3997.435791,4625.128418,3982.564209,3875.384521,4237.948730,3994.871826,4255.897461,4147.179688,4080.512939,4011.794922,352.000000,4.000000,,,,0.000000,2.000000,4.000000,4.000000,4.000000,4.000000,4.000000,4.000000,4.000000,4.000000,4.000000,2.000000,4.000000,4.000000,1.000000,41.666668
1601229881.044382,90.000000,0.000000,3910.256348,4644.102539,4154.358887,4270.256348,3995.897461,4625.128418,3981.025635,3877.435791,4248.205078,4003.589844,4257.436035,4143.589844,4082.564209,4012.307617,426.000000,4.000000,,,,0.000000,2.000000,4.000000,4.000000,4.000000,4.000000,4.000000,4.000000,4.000000,4.000000,4.000000,2.000000,4.000000,4.000000,1.000000,41.666668
1601229881.052112,91.000000,0.000000,3912.307617,4645.641113,4157.948730,4274.871582,4009.230713,4629.230957,3982.051270,3876.410156,4252.820313,4005.128174,4251.282227,4141.538574,4082.051270,4010.256348,52.000000,4.000000,,,,0.000000,2.000000,4.000000,4.000000,4.000000,4.000000,4.000000,4.000000,4.000000,4.000000,4.000000,2.000000,4.000000,4.000000,1.000000,41.666668
1601229881.060048,92.000000,0.000000,3912.820557,4652.307617,4162.563965,4279.487305,4024.615479,4637.948730,3991.281982,3875.897461,4254.358887,4008.205078,4257.948730,4154.358887,4085.128174,4010.769287,235.000000,4.000000,,,,0.000000,2.000000,4.000000,4.000000,4.000000,4.000000,4.000000,4.000000,4.000000,4.000000,4.000000,2.000000,4.000000,4.000000,1.000000,41.666668
1601229881.067885,93.000000,0.000000,3913.333252,4652.307617,4160.000000,4277.948730,4011.794922,4640.512695,3993.333252,3876.923096,4254.358887,4012.307617,4262.051270,4154.358887,4086.153809,4011.281982,352.000000,4.000000,,,,0.000000,2.000000,4.000000,4.000000,4.000000,4.000000,4.000000,4.000000,4.000000,4.000000,4.000000,2.000000,4.000000,4.000000,1.000000,41.666668
1601229881.075821,94.000000,0.000000,3911.794922,4644.102539,4154.358887,4272.820313,3994.871826,4627.692383,3984.615479,3870.256348,4242.563965,4001.538574,4248.205078,4135.897461,4074.871826,4009.743652,426.000000,4.000000,,,,0.000000,2.000000,4.000000,4.000000,4.000000,4.000000,4.000000,4.000000,4.000000,4.000000,4.000000,2.000000,4.000000,4.000000,1.000000,41.666668
1601229881.083657,95.000000,0.000000,3911.281982,4646.666504,4154.871582,4280.512695,3997.948730,4618.974121,3979.487061,3865.641113,4239.487305,3992.820557,4244.102539,4135.897461,4074.358887,4012.820557,52.000000,4.000000,,,,0.000000,2.000000,4.000000,4.000000,4.000000,4.000000,4.000000,4.000000,4.000000,4.000000,4.000000,2.000000,4.000000,4.000000,1.000000,41.666668
1601229881.091592,96.000000,0.000000,3911.794922,4659.487305,4154.871582,4285.128418,4000.512939,4626.666504,3985.128174,3873.333252,4252.307617,4000.000000,4256.922852,4150.256348,4091.281982,4014.871826,235.000000,4.000000,,,,0.000000,2.000000,4.000000,4.000000,4.000000,4.000000,4.000000,4.000000,4.000000,4.000000,4.000000,2.000000,4.000000,4.000000,1.000000,41.666668
1601229881.099428,97.000000,0.000000,3910.769287,4661.538574,4157.948730,4274.358887,4002.051270,4635.384766,3988.718018,3881.538574,4257.948730,4008.205078,4262.051270,4154.358887,4094.871826,4015.384521,352.000000,4.000000,,,,0.000000,2.000000,4.000000,4.000000,4.000000,4.000000,4.000000,4.000000,4.000000,4.000000,4.000000,2.000000,4.000000,4.000000,1.000000,41.666668
1601229881.107363,98.000000,0.000000,3913.846191,4657.436035,4167.692383,4272.307617,4003.076904,4636.922852,3991.794922,3882.051270,4255.384766,4011.794922,4260.512695,4155.897461,4089.230713,4020.000000,426.000000,4.000000,,,,0.000000,2.000000,4.000000,4.000000,4.000000,4.000000,4.000000,4.000000,4.000000,4.000000,4.000000,2.000000,4.000000,4.000000,1.000000,41.666668
1601229881.115197,99.000000,0.000000,3915.897461,4650.769043,4166.153809,4276.922852,3997.435791,4633.846191,3993.846191,3882.051270,4253.846191,4011.281982,4261.538574,4155.384766,4088.205078,4022.564209,52.000000,4.000000,,,,0.000000,2.000000,4.000000,4.000000,4.000000,4.000000,4.000000,4.000000,4.000000,4.000000,4.000000,2.000000,4.000000,4.000000,1.000000,41.666668
1601229881.122931,100.000000,0.000000,3912.307617,4636.922852,4153.333496,4270.769043,4003.076904,4629.743652,3987.692383,3883.589844,4257.948730,4011.281982,4262.563965,4151.794922,4086.153809,4017.948730,235.000000,4.000000,,,,0.000000,2.000000,4.000000,4.000000,4.000000,4.000000,4.000000,4.000000,4.000000,4.000000,4.000000,2.000000,4.000000,4.000000,1.000000,41.666668
1601229881.130765,101.000000,0.000000,3914.871826,4628.717773,4155.897461,4266.153809,4006.153809,4634.358887,3984.102539,3881.025635,4265.128418,4013.333252,4263.589844,4151.282227,4089.230713,4023.589844,352.000000,4.000000,,,,0.000000,2.000000,4.000000,4.000000,4.000000,4.000000,4.000000,4.000000,4.000000,4.000000,4.000000,2.000000,4.000000,4.000000,1.000000,41.666668
1601229881.138498,102.000000,0.000000,3923.589844,4644.102539,4169.230957,4273.846191,3994.358887,4638.974121,3989.743652,3881.025635,4269.230957,4014.871826,4264.102539,4157.948730,4100.000000,4042.564209,426.000000,4.000000,,,,0.000000,2.000000,4.000000,4.000000,4.000000,4.000000,4.000000,4.000000,4.000000,4.000000,4.000000,2.000000,4.000000,4.000000,1.000000,41.666668
1601229881.146332,103.000000,0.000000,3927.692383,4660.512695,4170.769043,4280.000000,3993.333252,4630.256348,3989.743652,3887.179443,4271.794922,4020.512939,4268.717773,4168.205078,4107.179688,4054.871826,52.000000,4.000000,,,,0.000000,2.000000,4.000000,4.000000,4.000000,4.000000,4.000000,4.000000,4.000000,4.000000,4.000000,2.000000,4.000000,4.000000,1.000000,41.666668
1601229881.154065,104.000000,0.000000,3925.641113,4652.307617,4170.769043,4276.410156,3999.487061,4626.153809,3995.384521,3891.794922,4274.358887,4032.820557,4275.897461,4172.820313,4109.230957,4050.769287,235.000000,4.000000,,,,0.000000,2.000000,4.000000,4.000000,4.000000,4.000000,4.000000,4.000000,4.000000,4.000000,4.000000,2.000000,4.000000,4.000000,1.000000,41.666668
1601229881.161898,105.000000,0.000000,3920.512939,4642.051270,4173.333496,4274.358887,3992.307617,4638.974121,4000.512939,3890.769287,4271.794922,4032.307617,4276.922852,4165.641113,4109.230957,4046.153809,352.000000,4.000000,,,,0.000000,2.000000,4.000000,4.000000,4.000000,4.000000,4.000000,4.000000,4.000000,4.000000,4.000000,2.000000,4.000000,4.000000,1.000000,41.666668
1601229881.169630,106.000000,0.000000,3915.384521,4646.666504,4162.051270,4276.410156,3993.846191,4639.487305,3983.589844,3882.564209,4262.563965,4016.923096,4269.230957,4155.384766,4104.615234,4047.179443,426.000000,4.000000,,,,0.000000,2.000000,4.000000,4.000000,4.000000,4.000000,4.000000,4.000000,4.000000,4.000000,4.000000,2.000000,4.000000,4.000000,1.000000,41.666668
1601229881.177463,107.000000,0.000000,3912.307617,4650.769043,4151.794922,4276.922852,4003.589844,4626.153809,3973.846191,3875.897461,4257.436035,4009.743652,4262.051270,4148.717773,4093.333252,4040.512939,52.000000,4.000000,,,,0.000000,2.000000,4.000000,4.000000,4.000000,4.000000,4.000000,4.000000,4.000000,4.000000,4.000000,2.000000,4.000000,4.000000,1.000000,41.666668
1601229881.185195,108.000000,0.000000,3911.281982,4655.384766,4158.974121,4279.487305,4004.102539,4624.102539,3982.564209,3881.025635,4259.487305,4013.333252,4262.563965,4140.512695,4089.230713,4026.153809,235.000000,4.000000,,,,0.000000,2.000000,4.000000,4.000000,4.000000,4.000000,4.000000,4.000000,4.000000,4.000000,4.000000,2.000000,4.000000,4.000000,1.000000,41.666668
1601229881.193027,109.000000,0.000000,3912.820557,4665.641113,4163.589844,4282.051270,4012.307617,4628.205078,3978.461426,3887.179443,4260.000000,4011.794922,4263.077148,4136.410156,4090.769287,4020.512939,352.000000,4.000000,,,,0.000000,2.000000,4.000000,4.000000,4.000000,4.000000,4.000000,4.000000,4.000000,4.000000,4.000000,2.000000,4.000000,4.000000,1.000000,41.666668
1601229881.200759,110.000000,0.000000,3911.794922,4658.461426,4153.333496,4274.871582,4011.794922,4622.563965,3969.230713,3881.538574,4253.846191,4001.538574,4257.436035,4138.974121,4084.615479,4019.487061,426.000000,4.000000,,,,0.000000,2.000000,4.000000,4.000000,4.000000,4.000000,4.000000,4.000000,4.000000,4.000000,4.000000,2.000000,4.000000,4.000000,1.000000,41.666668
1601229881.208590,111.000000,0.000000,3909.230713,4645.641113,4150.769043,4269.743652,3991.281982,4617.436035,3973.846191,3874.871826,4248.717773,3998.461426,4251.282227,4137.436035,4078.974365,4014.358887,52.000000,4.000000,,,,0.000000,2.000000,4.000000,4.000000,4.000000,4.000000,4.000000,4.000000,4.000000,4.000000,4.000000,2.000000,4.000000,4.000000,1.000000,41.666668
1601229881.216321,112.000000,0.000000,3914.871826,4654.871582,4162.051270,4274.871582,3987.692383,4626.666504,3978.461426,3878.974365,4254.358887,4010.769287,4253.333496,4139.487305,4080.000000,4013.846191,235.000000,4.000000,,,,0.000000,2.000000,4.000000,4.000000,4.000000,4.000000,4.000000,4.000000,4.000000,4.000000,4.000000,2.000000,4.000000,4.000000,1.000000,41.666668
1601229881.224152,113.000000,0.000000,3921.538574,4657.948730,4170.256348,4277.948730,4005.128174,4638.974121,3985.128174,3885.641113,4269.230957,4023.076904,4261.025879,4148.717773,4085.641113,4018.461426,352.000000,4.000000,,,,0.000000,2.000000,4.000000,4.000000,4.000000,4.000000,4.000000,4.000000,4.000000,4.000000,4.000000,2.000000,4.000000,4.000000,1.000000,41.666668
1601229881.231881,114.000000,0.000000,3921.538574,4650.256348,4169.743652,4278.974121,4008.205078,4640.000000,3994.871826,3885.641113,4276.922852,4019.487061,4261.538574,4153.846191,4090.256348,4020.000000,426.000000,4.000000,,,,0.000000,2.000000,4.000000,4.000000,4.000000,4.000000,4.000000,4.000000,4.000000,4.000000,4.000000,2.000000,4.000000,4.000000,1.000000,41.666668
1601229881.239818,115.000000,0.000000,3920.512939,4656.410156,4166.153809,4276.922852,4002.051270,4637.436035,3992.307617,3883.589844,4267.179688,4008.205078,4258.974121,4153.333496,4083.589844,4020.000000,52.000000,4.000000,,,,0.000000,2.000000,4.000000,4.000000,4.000000,4.000000,4.000000,4.000000,4.000000,4.000000,4.000000,2.000000,4.000000,4.000000,1.000000,41.666668
1601229881.247654,116.000000,0.000000,3922.051270,4651.794922,4166.666504,4263.589844,3998.974365,4633.846191,3987.179443,3874.358887,4253.846191,4002.051270,4254.871582,4148.717773,4071.794922,4020.512939,235.000000,4.000000,,,,0.000000,2.000000,4.000000,4.000000,4.000000,4.000000,4.000000,4.000000,4.000000,4.000000,4.000000,2.000000,4.000000,4.000000,1.000000,41.666668
1601229881.255590,117.000000,0.000000,3919.487061,4635.897461,4163.589844,4261.025879,3991.281982,4630.769043,3984.102539,3866.666748,4255.384766,4002.564209,4250.769043,4138.974121,4075.897461,4015.897461,352.000000,4.000000,,,,0.000000,2.000000,4.000000,4.000000,4.000000,4.000000,4.000000,4.000000,4.000000,4.000000,4.000000,2.000000,4.000000,4.000000,1.000000,41.666668
1601229881.263426,118.000000,0.000000,3913.333252,4640.000000,4154.358887,4271.794922,3989.743652,4628.205078,3976.410156,3869.743652,4260.512695,4004.615479,4252.820313,4134.358887,4082.564209,4014.358887,426.000000,4.000000,,,,0.000000,2.000000,4.000000,4.000000,4.000000,4.000000,4.000000,4.000000,4.000000,4.000000,4.000000,2.000000,4.000000,4.000000,1.000000,41.666668
1601229881.271361,119.000000,0.000000,3910.256348,4646.666504,4152.307617,4267.692383,3991.281982,4623.077148,3966.666748,3872.820557,4256.922852,4004.615479,4252.307617,4135.897461,4078.974365,4018.974365,52.000000,4.000000,,,,0.000000,2.000000,4.000000,4.000000,4.000000,4.000000,4.000000,4.000000,4.000000,4.000000,4.000000,2.000000,4.000000,4.000000,1.000000,41.666668
1601229881.279197,120.000000,0.000000,3910.256348,4636.922852,4153.846191,4258.974121,3992.307617,4623.589844,3969.230713,3867.692383,4254.358887,4004.615479,4247.179688,4131.282227,4077.948730,4018.974365,235.000000,4.000000,,,,0.000000,2.000000,4.000000,4.000000,4.000000,4.000000,4.000000,4.000000,4.000000,4.000000,4.000000,2.000000,4.000000,4.000000,1.000000,41.666668
1601229881.287132,121.000000,0.000000,3912.307617,4634.871582,4153.333496,4264.615234,3993.333252,4632.820313,3986.153809,3870.769287,4258.974121,4006.153809,4246.666504,4126.153809,4076.410156,4014.358887,352.000000,4.000000,,,,0.000000,2.000000,4.000000,4.000000,4.000000,4.000000,4.000000,4.000000,4.000000,4.000000,4.000000,2.000000,4.000000,4.000000,1.000000,41.666668
1601229881.294967,122.000000,0.000000,3910.769287,4634.871582,4155.384766,4263.077148,3985.641113,4635.384766,3989.743652,3879.487061,4262.563965,4008.718018,4247.692383,4127.179688,4068.718018,4012.820557,426.000000,4.000000,,,,0.000000,2.000000,4.000000,4.000000,4.000000,4.000000,4.000000,4.000000,4.000000,4.000000,4.000000,2.000000,4.000000,4.000000,1.000000,41.666668
1601229881.302901,123.000000,0.000000,3907.692383,4629.743652,4155.897461,4252.307617,3974.358887,4624.102539,3980.512939,3881.025635,4262.051270,4005.128174,4240.512695,4122.563965,4064.615479,4015.384521,52.000000,4.000000,,,,0.000000,2.000000,4.000000,4.000000,4.000000,4.000000,4.000000,4.000000,4.000000,4.000000,4.000000,2.000000,4.000000,4.000000,1.000000,41.666668
1601229881.310735,124.000000,0.000000,3909.230713,4642.051270,4153.333496,4263.077148,3987.692383,4628.717773,3986.666748,3887.179443,4267.179688,4003.076904,4241.538574,4122.563965,4063.589844,4017.948730,235.000000,4.000000,,,,0.000000,2.000000,4.000000,4.000000,4.000000,4.000000,4.000000,4.000000,4.000000,4.000000,4.000000,2.000000,4.000000,4.000000,1.000000,41.666668
1601229881.318468,125.000000,0.000000,3919.487061,4653.846191,4159.487305,4274.358887,4010.256348,4648.205078,4001.538574,3896.923096,4277.436035,4010.769287,4250.256348,4134.871582,4068.718018,4022.051270,352.000000,4.000000,,,,0.000000,2.000000,4.000000,4.000000,4.000000,4.000000,4.000000,4.000000,4.000000,4.000000,4.000000,2.000000,4.000000,4.000000,1.000000,41.666668
1601229881.326301,126.000000,0.000000,3918.461426,4642.051270,4162.051270,4265.128418,4002.564209,4648.205078,4001.538574,3893.333252,4275.384766,4015.897461,4249.743652,4141.025879,4068.718018,4022.051270,426.000000,4.000000,,,,0.000000,2.000000,4.000000,4.000000,4.000000,4.000000,4.000000,4.000000,4.000000,4.000000,4.000000,2.000000,4.000000,4.000000,1.000000,41.666668
1601229881.334034,127.000000,0.000000,3907.692383,4640.000000,4154.871582,4260.512695,3995.384521,4639.487305,3999.487061,3884.615479,4272.820313,4012.307617,4245.641113,4135.384766,4064.615479,4020.512939,52.000000,4.000000,,,,0.000000,2.000000,4.000000,4.000000,4.000000,4.000000,4.000000,4.000000,4.000000,4.000000,4.000000,2.000000,4.000000,4.000000,1.000000,41.666668
1601229881.341867,128.000000,0.000000,3915.897461,4656.410156,4162.051270,4270.256348,3997.435791,4644.102539,4001.538574,3890.769287,4284.615234,4013.846191,4247.179688,4135.384766,4069.743652,4021.538574,235.000000,4.000000,,,,0.000000,2.000000,4.000000,4.000000,4.000000,4.000000,4.000000,4.000000,4.000000,4.000000,4.000000,2.000000,4.000000,4.000000,1.000000,41.666668
1601229881.349600,0.000000,0.000000,3929.743652,4655.897461,4174.871582,4277.948730,3988.205078,4647.179688,4002.051270,3898.974365,4293.333496,4020.000000,4251.794922,4142.051270,4078.461426,4022.564209,383.000000,4.000000,,,,0.000000,2.000000,4.000000,4.000000,4.000000,4.000000,4.000000,4.000000,4.000000,4.000000,4.000000,2.000000,4.000000,4.000000,1.000000,41.666668
1601229881.357433,1.000000,0.000000,3924.102539,4641.025879,4167.692383,4275.384766,3982.564209,4642.563965,4006.153809,3891.794922,4287.692383,4015.384521,4249.230957,4136.410156,4081.538574,4020.512939,433.000000,4.000000,,,,0.000000,2.000000,4.000000,4.000000,4.000000,4.000000,4.000000,4.000000,4.000000,4.000000,4.000000,2.000000,4.000000,4.000000,1.000000,41.666668
1601229881.365164,2.000000,0.000000,3906.153809,4633.846191,4150.769043,4262.563965,3987.179443,4638.974121,3996.410156,3883.589844,4277.948730,4009.230713,4242.051270,4122.563965,4079.487061,4015.384521,382.000000,4.000000,,,,0.000000,2.000000,4.000000,4.000000,4.000000,4.000000,4.000000,4.000000,4.000000,4.000000,4.000000,2.000000,4.000000,4.000000,1.000000,41.666668
1601229881.372995,3.000000,0.000000,3898.974365,4636.410156,4148.205078,4254.358887,4000.000000,4640.512695,3981.538574,3885.641113,4275.384766,4011.794922,4242.563965,4121.025879,4076.923096,4013.333252,430.000000,4.000000,,,,0.000000,2.000000,4.000000,4.000000,4.000000,4.000000,4.000000,4.000000,4.000000,4.000000,4.000000,2.000000,4.000000,4.000000,1.000000,41.666668
1601229881.380727,4.000000,0.000000,3904.615479,4638.461426,4153.333496,4257.948730,4009.230713,4644.102539,3988.205078,3885.128174,4277.948730,4013.846191,4246.666504,4123.589844,4069.743652,4017.948730,457.000000,4.000000,,,,0.000000,2.000000,4.000000,4.000000,4.000000,4.000000,4.000000,4.000000,4.000000,4.000000,4.000000,2.000000,4.000000,4.000000,1.000000,41.666668
1601229881.388558,5.000000,0.000000,3904.102539,4632.307617,4153.333496,4257.436035,4000.000000,4641.025879,3992.820557,3878.461426,4277.436035,4011.281982,4244.615234,4109.230957,4058.461426,4015.384521,431.000000,4.000000,,,,0.000000,2.000000,4.000000,4.000000,4.000000,4.000000,4.000000,4.000000,4.000000,4.000000,4.000000,2.000000,4.000000,4.000000,1.000000,41.666668
1601229881.396289,6.000000,0.000000,3893.333252,4626.666504,4147.179688,4251.282227,3979.487061,4631.794922,3981.025635,3875.384521,4268.717773,4007.692383,4235.897461,4093.846191,4052.820557,4005.128174,439.000000,4.000000,,,,0.000000,2.000000,4.000000,4.000000,4.000000,4.000000,4.000000,4.000000,4.000000,4.000000,4.000000,2.000000,4.000000,4.000000,1.000000,41.666668
1601229881.404120,7.000000,0.000000,3895.897461,4626.666504,4146.153809,4253.846191,3977.435791,4633.333496,3981.538574,3878.974365,4268.717773,4007.692383,4235.897461,4098.974121,4060.512939,4003.589844,348.000000,4.000000,,,,0.000000,2.000000,4.000000,4.000000,4.000000,4.000000,4.000000,4.000000,4.000000,4.000000,4.000000,2.000000,4.000000,4.000000,1.000000,41.666668
1601229881.411850,8.000000,0.000000,3912.307617,4628.717773,4153.846191,4259.487305,3992.820557,4640.512695,3993.846191,3884.102539,4279.487305,4009.743652,4247.179688,4108.205078,4071.794922,4010.256348,405.000000,4.000000,,,,0.000000,2.000000,4.000000,4.000000,4.000000,4.000000,4.000000,4.000000,4.000000,4.000000,4.000000,2.000000,4.000000,4.000000,1.000000,41.666668
1601229881.419786,9.000000,0.000000,3909.230713,4629.230957,4152.307617,4255.384766,3995.384521,4638.461426,4002.564209,3885.641113,4275.897461,4003.589844,4245.641113,4099.487305,4069.743652,4009.230713,405.000000,4.000000,,,,0.000000,2.000000,4.000000,4.000000,4.000000,4.000000,4.000000,4.000000,4.000000,4.000000,4.000000,2.000000,4.000000,4.000000,1.000000,41.666668
1601229881.427622,10.000000,0.000000,3893.846191,4624.102539,4142.051270,4248.205078,3984.102539,4637.436035,4006.666748,3888.205078,4273.333496,3994.871826,4231.794922,4092.307617,4057.435791,4003.076904,426.000000,4.000000,,,,0.000000,2.000000,4.000000,4.000000,4.000000,4.000000,4.000000,4.000000,4.000000,4.000000,4.000000,2.000000,4.000000,4.000000,1.000000,41.666668
1601229881.435557,11.000000,0.000000,3900.512939,4619.487305,4145.641113,4250.256348,3980.512939,4648.205078,4006.666748,3901.538574,4292.307617,4005.128174,4231.794922,4108.717773,4050.256348,4005.641113,52.000000,4.000000,,,,0.000000,2.000000,4.000000,4.000000,4.000000,4.000000,4.000000,4.000000,4.000000,4.000000,4.000000,2.000000,4.000000,4.000000,1.000000,41.666668
1601229881.443393,12.000000,0.000000,3915.384521,4630.769043,4160.512695,4260.512695,3996.410156,4662.563965,4007.692383,3909.743652,4309.230957,4022.051270,4246.666504,4128.717773,4064.102539,4011.281982,235.000000,4.000000,,,,0.000000,2.000000,4.000000,4.000000,4.000000,4.000000,4.000000,4.000000,4.000000,4.000000,4.000000,2.000000,4.000000,4.000000,1.000000,41.666668
1601229881.451328,13.000000,0.000000,3915.384521,4648.205078,4158.974121,4263.589844,3998.461426,4658.974121,4007.692383,3897.435791,4302.563965,4022.564209,4250.256348,4128.205078,4077.435791,4010.769287,352.000000,4.000000,,,,0.000000,2.000000,4.000000,4.000000,4.000000,4.000000,4.000000,4.000000,4.000000,4.000000,4.000000,2.000000,4.000000,4.000000,1.000000,41.666668
1601229881.459163,14.000000,0.000000,3912.307617,4650.769043,4151.794922,4262.563965,3989.230713,4643.589844,4001.025635,3888.205078,4295.384766,4016.410156,4246.666504,4124.102539,4075.897461,4008.205078,426.000000,4.000000,,,,0.000000,2.000000,4.000000,4.000000,4.000000,4.000000,4.000000,4.000000,4.000000,4.000000,4.000000,2.000000,4.000000,4.000000,1.000000,41.666668
1601229881.467098,15.000000,0.000000,3913.333252,4645.128418,4155.897461,4265.128418,4000.512939,4642.563965,3995.384521,3890.256348,4292.820313,4015.897461,4250.769043,4127.179688,4073.846191,4007.692383,52.000000,4.000000,,,,0.000000,2.000000,4.000000,4.000000,4.000000,4.000000,4.000000,4.000000,4.000000,4.000000,4.000000,2.000000,4.000000,4.000000,1.000000,41.666668
1601229881.474933,16.000000,0.000000,3904.615479,4636.410156,4151.282227,4260.000000,4000.000000,4647.179688,3996.410156,3885.128174,4283.589844,4012.820557,4246.666504,4121.538574,4066.666748,4007.692383,0.000000,4.000000,,,,0.000000,2.000000,4.000000,4.000000,4.000000,4.000000,4.000000,4.000000,4.000000,4.000000,4.000000,2.000000,4.000000,4.000000,1.000000,41.666668
1601229881.482867,17.000000,0.000000,3896.923096,4630.256348,4143.077148,4255.384766,3977.948730,4641.538574,3993.846191,3878.974365,4279.487305,4010.256348,4235.384766,4110.769043,4056.410156,4006.666748,0.000000,4.000000,,,,0.000000,2.000000,4.000000,4.000000,4.000000,4.000000,4.000000,4.000000,4.000000,4.000000,4.000000,2.000000,4.000000,4.000000,1.000000,41.666668
1601229881.490702,18.000000,0.000000,3898.974365,4633.846191,4143.077148,4258.974121,3980.512939,4634.871582,3987.692383,3885.128174,4284.615234,4012.307617,4234.871582,4104.615234,4060.000000,4004.615479,0.000000,4.000000,,,,0.000000,2.000000,4.000000,4.000000,4.000000,4.000000,4.000000,4.000000,4.000000,4.000000,4.000000,2.000000,4.000000,4.000000,1.000000,41.666668
1601229881.498435,19.000000,0.000000,3900.000000,4636.410156,4144.102539,4259.487305,3997.948730,4636.410156,3989.743652,3889.230713,4291.794922,4014.358887,4241.538574,4107.692383,4067.692383,4004.102539,0.000000,4.000000,,,,0.000000,2.000000,4.000000,4.000000,4.000000,4.000000,4.000000,4.000000,4.000000,4.000000,4.000000,2.000000,4.000000,4.000000,1.000000,41.666668
1601229881.506268,20.000000,0.000000,3900.512939,4635.897461,4142.563965,4252.307617,3993.333252,4636.922852,3994.871826,3885.128174,4292.307617,4016.410156,4241.025879,4117.436035,4071.794922,4003.076904,0.000000,4.000000,,,,0.000000,2.000000,4.000000,4.000000,4.000000,4.000000,4.000000,4.000000,4.000000,4.000000,4.000000,2.000000,4.000000,4.000000,1.000000,41.666668
1601229881.514001,21.000000,0.000000,3903.589844,4634.358887,4141.538574,4247.179688,3986.666748,4628.717773,3993.333252,3882.051270,4285.641113,4013.846191,4242.051270,4120.000000,4071.281982,4004.615479,0.000000,4.000000,,,,0.000000,2.000000,4.000000,4.000000,4.000000,4.000000,4.000000,4.000000,4.000000,4.000000,4.000000,2.000000,4.000000,4.000000,1.000000,41.666668
1601229881.521834,22.000000,0.000000,3907.692383,4632.820313,4146.666504,4251.282227,3998.461426,4626.666504,3991.794922,3886.153809,4284.615234,4011.794922,4248.717773,4118.461426,4063.076904,4007.179443,0.000000,4.000000,,,,0.000000,2.000000,4.000000,4.000000,4.000000,4.000000,4.000000,4.000000,4.000000,4.000000,4.000000,2.000000,4.000000,4.000000,1.000000,41.666668
1601229881.529566,23.000000,0.000000,3911.794922,4635.384766,4153.333496,4257.436035,4002.051270,4637.948730,3996.923096,3889.743652,4287.692383,4019.487061,4249.743652,4120.000000,4061.025635,4010.256348,0.000000,4.000000,,,,0.000000,2.000000,4.000000,4.000000,4.000000,4.000000,4.000000,4.000000,4.000000,4.000000,4.000000,2.000000,4.000000,4.000000,1.000000,41.666668
1601229881.537398,24.000000,0.000000,3911.794922,4640.512695,4153.333496,4256.410156,3987.179443,4647.692383,3993.846191,3880.512939,4287.179688,4027.179443,4246.666504,4123.077148,4075.384521,4008.718018,0.000000,4.000000,,,,0.000000,2.000000,4.000000,4.000000,4.000000,4.000000,4.000000,4.000000,4.000000,4.000000,4.000000,2.000000,4.000000,4.000000,1.000000,41.666668
1601229881.545130,25.000000,0.000000,3908.205078,4629.230957,4151.282227,4249.230957,3977.435791,4641.025879,3987.692383,3873.333252,4285.641113,4021.025635,4245.128418,4123.077148,4081.025635,4005.641113,0.000000,4.000000,,,,0.000000,2.000000,4.000000,4.000000,4.000000,4.000000,4.000000,4.000000,4.000000,4.000000,4.000000,2.000000,4.000000,4.000000,1.000000,41.666668
1601229881.552961,26.000000,0.000000,3908.718018,4614.871582,4155.897461,4251.794922,3991.794922,4637.436035,3998.461426,3884.102539,4289.743652,4016.410156,4245.128418,4124.615234,4072.820557,4006.666748,0.000000,4.000000,,,,0.000000,2.000000,4.000000,4.000000,4.000000,4.000000,4.000000,4.000000,4.000000,4.000000,4.000000,2.000000,4.000000,4.000000,1.000000,41.666668
1601229881.560692,27.000000,0.000000,3905.641113,4627.179688,4150.769043,4259.487305,3997.435791,4645.128418,4006.153809,3892.820557,4293.333496,4023.076904,4246.666504,4124.615234,4066.666748,4008.718018,0.000000,4.000000,,,,0.000000,2.000000,4.000000,4.000000,4.000000,4.000000,4.000000,4.000000,4.000000,4.000000,4.000000,2.000000,4.000000,4.000000,1.000000,41.666668
1601229881.568524,28.000000,0.000000,3903.589844,4641.538574,4142.563965,4257.948730,3984.615479,4649.743652,3997.948730,3885.641113,4290.256348,4025.641113,4246.666504,4121.538574,4065.128174,4013.333252,0.000000,4.000000,,,,0.000000,2.000000,4.000000,4.000000,4.000000,4.000000,4.000000,4.000000,4.000000,4.000000,4.000000,2.000000,4.000000,4.000000,1.000000,41.666668
1601229881.576254,29.000000,0.000000,3909.230713,4635.897461,4150.256348,4255.384766,3985.128174,4639.487305,3988.205078,3879.487061,4286.666504,4018.974365,4247.179688,4123.077148,4066.153809,4026.153809,0.000000,4.000000,,,,0.000000,2.000000,4.000000,4.000000,4.000000,4.000000,4.000000,4.000000,4.000000,4.000000,4.000000,2.000000,4.000000,4.000000,1.000000,41.666668
1601229881.584085,30.000000,0.000000,3914.871826,4637.436035,4156.922852,4257.948730,4001.025635,4628.717773,3982.051270,3882.051270,4285.641113,4012.307617,4249.230957,4126.666504,4072.820557,4035.897461,0.000000,4.000000,,,,0.000000,2.000000,4.000000,4.000000,4.000000,4.000000,4.000000,4.000000,4.000000,4.000000,4.000000,2.000000,4.000000,4.000000,1.000000,41.666668
1601229881.591815,31.000000,0.000000,3909.743652,4650.769043,4152.820313,4260.512695,4001.538574,4634.871582,3984.615479,3882.051270,4285.641113,4013.333252,4249.743652,4127.179688,4074.358887,4030.256348,0.000000,4.000000,,,,0.000000,2.000000,4.000000,4.000000,4.000000,4.000000,4.000000,4.000000,4.000000,4.000000,4.000000,2.000000,4.000000,4.000000,1.000000,41.666668
1601229881.599751,32.000000,0.000000,3897.435791,4643.589844,4150.256348,4255.384766,3981.538574,4637.948730,3994.358887,3879.487061,4283.589844,4009.743652,4243.589844,4123.589844,4069.230713,4022.564209,0.000000,4.000000,,,,0.000000,2.000000,4.000000,4.000000,4.000000,4.000000,4.000000,4.000000,4.000000,4.000000,4.000000,2.000000,4.000000,4.000000,1.000000,41.666668
1601229881.607586,33.000000,0.000000,3894.358887,4627.179688,4152.820313,4255.897461,3973.846191,4632.820313,4000.000000,3888.205078,4290.769043,4007.692383,4241.025879,4123.077148,4075.384521,4017.435791,0.000000,4.000000,,,,0.000000,2.000000,4.000000,4.000000,4.000000,4.000000,4.000000,4.000000,4.000000,4.000000,4.000000,2.000000,4.000000,4.000000,1.000000,41.666668
1601229881.615521,34.000000,0.000000,3895.384521,4625.641113,4148.717773,4256.410156,3980.512939,4634.871582,3994.358887,3892.307617,4293.846191,4014.358887,4248.205078,4124.615234,4082.051270,4009.230713,0.000000,4.000000,,,,0.000000,2.000000,4.000000,4.000000,4.000000,4.000000,4.000000,4.000000,4.000000,4.000000,4.000000,2.000000,4.000000,4.000000,1.000000,41.666668
1601229881.623357,35.000000,0.000000,3891.794922,4619.487305,4144.102539,4248.717773,3983.589844,4636.922852,3990.256348,3879.487061,4271.794922,4010.256348,4247.179688,4120.000000,4067.692383,4005.128174,0.000000,4.000000,,,,0.000000,2.000000,4.000000,4.000000,4.000000,4.000000,4.000000,4.000000,4.000000,4.000000,4.000000,2.000000,4.000000,4.000000,1.000000,41.666668
1601229881.631292,36.000000,0.000000,3889.230713,4609.743652,4142.563965,4247.692383,3977.948730,4632.307617,3990.256348,3870.256348,4245.128418,3993.846191,4235.897461,4109.230957,4056.410156,4007.692383,0.000000,4.000000,,,,0.000000,2.000000,4.000000,4.000000,4.000000,4.000000,4.000000,4.000000,4.000000,4.000000,4.000000,2.000000,4.000000,4.000000,1.000000,41.666668
1601229881.639127,37.000000,0.000000,3891.281982,4617.948730,4136.922852,4253.846191,3980.000000,4624.615234,3980.512939,3870.769287,4237.948730,3988.205078,4235.897461,4104.615234,4067.692383,4008.718018,0.000000,4.000000,,,,0.000000,2.000000,4.000000,4.000000,4.000000,4.000000,4.000000,4.000000,4.000000,4.000000,4.000000,2.000000,4.000000,4.000000,1.000000,41.666668
1601229881.647061,38.000000,0.000000,3899.487061,4628.717773,4139.487305,4255.897461,3991.281982,4617.948730,3975.897461,3874.871826,4247.179688,3999.487061,4247.692383,4116.410156,4084.615479,4013.846191,0.000000,4.000000,,,,0.000000,2.000000,4.000000,4.000000,4.000000,4.000000,4.000000,4.000000,4.000000,4.000000,4.000000,2.000000,4.000000,4.000000,1.000000,41.666668
1601229881.654896,39.000000,0.000000,3906.666748,4626.153809,4151.282227,4257.436035,3990.256348,4628.205078,3994.871826,3885.128174,4257.948730,4006.666748,4252.307617,4134.358887,4088.205078,4018.461426,0.000000,4.000000,,,,0.000000,2.000000,4.000000,4.000000,4.000000,4.000000,4.000000,4.000000,4.000000,4.000000,4.000000,2.000000,4.000000,4.000000,1.000000,41.666668
1601229881.662829,40.000000,0.000000,3902.051270,4625.128418,4156.922852,4262.051270,3983.076904,4647.692383,4012.820557,3896.923096,4267.692383,4004.102539,4249.230957,4138.461426,4077.948730,4015.384521,0.000000,4.000000,,,,0.000000,2.000000,4.000000,4.000000,4.000000,4.000000,4.000000,4.000000,4.000000,4.000000,4.000000,2.000000,4.000000,4.000000,1.000000,41.666668
1601229881.670663,41.000000,0.000000,3894.358887,4627.692383,4153.333496,4258.974121,3981.025635,4643.077148,3997.948730,3888.718018,4264.102539,3998.461426,4242.051270,4125.128418,4066.153809,4011.281982,0.000000,4.000000,,,,0.000000,2.000000,4.000000,4.000000,4.000000,4.000000,4.000000,4.000000,4.000000,4.000000,4.000000,2.000000,4.000000,4.000000,1.000000,41.666668
1601229881.678397,42.000000,0.000000,3892.820557,4626.666504,4145.641113,4257.948730,3982.564209,4622.563965,3984.102539,3875.897461,4246.666504,3991.281982,4233.333496,4109.230957,4060.512939,4010.769287,0.000000,4.000000,,,,0.000000,2.000000,4.000000,4.000000,4.000000,4.000000,4.000000,4.000000,4.000000,4.000000,4.000000,2.000000,4.000000,4.000000,1.000000,41.666668
1601229881.686230,43.000000,0.000000,3891.281982,4629.230957,4136.410156,4264.615234,3989.743652,4620.000000,3991.281982,3875.897461,4239.487305,3982.564209,4232.820313,4104.615234,4050.769287,4012.307617,0.000000,4.000000,,,,0.000000,2.000000,4.000000,4.000000,4.000000,4.000000,4.000000,4.000000,4.000000,4.000000,4.000000,2.000000,4.000000,4.000000,1.000000,41.666668
1601229881.693962,44.000000,0.000000,3892.307617,4632.820313,4135.384766,4262.051270,3994.871826,4629.743652,3985.128174,3871.794922,4243.589844,3977.948730,4233.846191,4104.102539,4045.641113,4014.871826,0.000000,4.000000,,,,0.000000,2.000000,4.000000,4.000000,4.000000,4.000000,4.000000,4.000000,4.000000,4.000000,4.000000,2.000000,4.000000,4.000000,1.000000,41.666668
1601229881.701795,45.000000,0.000000,3896.410156,4629.743652,4145.128418,4254.871582,3988.205078,4628.717773,3968.205078,3862.051270,4243.589844,3978.974365,4229.230957,4107.179688,4060.000000,4015.897461,0.000000,4.000000,,,,0.000000,2.000000,4.000000,4.000000,4.000000,4.000000,4.000000,4.000000,4.000000,4.000000,4.000000,2.000000,4.000000,4.000000,1.000000,41.666668
1601229881.709527,46.000000,0.000000,3898.974365,4629.743652,4152.307617,4254.358887,3985.641113,4622.563965,3970.769287,3867.692383,4242.051270,3983.076904,4234.358887,4115.384766,4071.281982,4016.923096,0.000000,4.000000,,,,0.000000,2.000000,4.000000,4.000000,4.000000,4.000000,4.000000,4.000000,4.000000,4.000000,4.000000,2.000000,4.000000,4.000000,1.000000,41.666668
1601229881.717358,47.000000,0.000000,3908.205078,4644.615234,4154.358887,4264.102539,3993.333252,4628.205078,3986.153809,3883.076904,4252.820313,3993.846191,4247.692383,4123.077148,4069.743652,4023.589844,0.000000,4.000000,,,,0.000000,2.000000,4.000000,4.000000,4.000000,4.000000,4.000000,4.000000,4.000000,4.000000,4.000000,2.000000,4.000000,4.000000,1.000000,41.666668
1601229881.725090,48.000000,0.000000,3913.333252,4657.436035,4155.897461,4272.820313,3992.307617,4638.461426,3992.820557,3888.718018,4268.205078,4008.205078,4251.282227,4122.563965,4078.974365,4024.102539,0.000000,4.000000,,,,0.000000,2.000000,4.000000,4.000000,4.000000,4.000000,4.000000,4.000000,4.000000,4.000000,4.000000,2.000000,4.000000,4.000000,1.000000,41.666668
1601229881.732922,49.000000,0.000000,3909.743652,4647.179688,4157.436035,4269.743652,3993.333252,4640.000000,3996.923096,3889.743652,4272.307617,4014.358887,4249.230957,4121.538574,4084.615479,4017.435791,0.000000,4.000000,,,,0.000000,2.000000,4.000000,4.000000,4.000000,4.000000,4.000000,4.000000,4.000000,4.000000,4.000000,2.000000,4.000000,4.000000,1.000000,41.666668
1601229881.740653,50.000000,0.000000,3909.743652,4630.256348,4153.333496,4261.025879,4003.589844,4638.974121,4001.538574,3892.307617,4270.769043,4007.692383,4246.666504,4118.974121,4069.743652,4016.923096,0.000000,4.000000,,,,0.000000,2.000000,4.000000,4.000000,4.000000,4.000000,4.000000,4.000000,4.000000,4.000000,4.000000,2.000000,4.000000,4.000000,1.000000,41.666668
1601229881.748484,51.000000,0.000000,3902.051270,4626.153809,4144.102539,4255.897461,3990.769287,4630.769043,3992.820557,3884.615479,4263.077148,3994.358887,4240.000000,4107.179688,4061.025635,4020.000000,0.000000,4.000000,,,,0.000000,2.000000,4.000000,4.000000,4.000000,4.000000,4.000000,4.000000,4.000000,4.000000,4.000000,2.000000,4.000000,4.000000,1.000000,41.666668
1601229881.756215,52.000000,0.000000,3891.794922,4627.692383,4145.641113,4252.307617,3968.205078,4615.897461,3980.000000,3871.281982,4250.256348,3985.641113,4234.871582,4101.025879,4071.281982,4016.923096,0.000000,4.000000,,,,0.000000,2.000000,4.000000,4.000000,4.000000,4.000000,4.000000,4.000000,4.000000,4.000000,4.000000,2.000000,4.000000,4.000000,1.000000,41.666668
1601229881.764045,53.000000,0.000000,3902.051270,4619.487305,4151.794922,4250.769043,3970.256348,4613.333496,3980.512939,3867.179443,4242.051270,3982.564209,4236.922852,4108.717773,4073.333252,4016.410156,0.000000,4.000000,,,,0.000000,2.000000,4.000000,4.000000,4.000000,4.000000,4.000000,4.000000,4.000000,4.000000,4.000000,2.000000,4.000000,4.000000,1.000000,41.666668
1601229881.771775,54.000000,0.000000,3908.205078,4615.384766,4153.333496,4257.948730,3983.076904,4617.436035,3985.641113,3876.410156,4242.563965,3982.051270,4236.922852,4111.794922,4057.948730,4020.512939,0.000000,4.000000,,,,0.000000,2.000000,4.000000,4.000000,4.000000,4.000000,4.000000,4.000000,4.000000,4.000000,4.000000,2.000000,4.000000,4.000000,1.000000,41.666668
1601229881.779711,55.000000,0.000000,3896.410156,4628.717773,4152.307617,4264.102539,3984.615479,4620.512695,3977.435791,3879.487061,4244.102539,3981.538574,4231.282227,4106.153809,4046.666748,4019.487061,0.000000,4.000000,,,,0.000000,2.000000,4.000000,4.000000,4.000000,4.000000,4.000000,4.000000,4.000000,4.000000,4.000000,2.000000,4.000000,4.000000,1.000000,41.666668
1601229881.787547,56.000000,0.000000,3896.410156,4650.769043,4154.358887,4266.153809,3994.871826,4626.666504,3976.923096,3870.769287,4247.179688,3987.692383,4233.333496,4104.102539,4052.820557,4015.897461,0.000000,4.000000,,,,0.000000,2.000000,4.000000,4.000000,4.000000,4.000000,4.000000,4.000000,4.000000,4.000000,4.000000,2.000000,4.000000,4.000000,1.000000,41.666668
1601229881.795518,57.000000,0.000000,3911.794922,4659.487305,4156.410156,4271.282227,4011.794922,4628.717773,3988.718018,3867.179443,4251.794922,3994.358887,4242.563965,4108.717773,4070.256348,4019.487061,0.000000,4.000000,,,,0.000000,2.000000,4.000000,4.000000,4.000000,4.000000,4.000000,4.000000,4.000000,4.000000,4.000000,2.000000,4.000000,4.000000,1.000000,41.666668
1601229881.803389,58.000000,0.000000,3915.897461,4645.641113,4156.922852,4270.256348,3998.974365,4622.051270,3983.076904,3871.794922,4248.717773,3993.333252,4249.230957,4111.282227,4077.435791,4021.025635,0.000000,4.000000,,,,0.000000,2.000000,4.000000,4.000000,4.000000,4.000000,4.000000,4.000000,4.000000,4.000000,4.000000,2.000000,4.000000,4.000000,1.000000,41.666668
1601229881.811260,59.000000,0.000000,3906.666748,4635.384766,4155.897461,4261.025879,3983.589844,4615.897461,3971.281982,3870.769287,4245.641113,3986.666748,4244.615234,4109.230957,4068.718018,4018.461426,0.000000,4.000000,,,,0.000000,2.000000,4.000000,4.000000,4.000000,4.000000,4.000000,4.000000,4.000000,4.000000,4.000000,2.000000,4.000000,4.000000,1.000000,41.666668
1601229881.819131,60.000000,0.000000,3900.000000,4638.461426,4152.820313,4257.948730,3991.794922,4618.461426,3977.948730,3870.256348,4249.230957,3987.179443,4236.922852,4109.230957,4061.025635,4015.897461,0.000000,4.000000,,,,0.000000,2.000000,4.000000,4.000000,4.000000,4.000000,4.000000,4.000000,4.000000,4.000000,4.000000,2.000000,4.000000,4.000000,1.000000,41.666668
1601229881.827002,61.000000,0.000000,3896.923096,4634.358887,4144.615234,4261.538574,3994.871826,4617.948730,3985.128174,3874.358887,4246.153809,3989.743652,4234.871582,4109.230957,4063.076904,4013.333252,0.000000,4.000000,,,,0.000000,2.000000,4.000000,4.000000,4.000000,4.000000,4.000000,4.000000,4.000000,4.000000,4.000000,2.000000,4.000000,4.000000,1.000000,41.666668
1601229881.834873,62.000000,0.000000,3893.333252,4627.692383,4138.461426,4256.922852,3990.256348,4608.205078,3975.384521,3870.769287,4238.461426,3988.718018,4240.512695,4106.153809,4062.564209,4012.307617,0.000000,4.000000,,,,0.000000,2.000000,4.000000,4.000000,4.000000,4.000000,4.000000,4.000000,4.000000,4.000000,4.000000,2.000000,4.000000,4.000000,1.000000,41.666668
1601229881.842743,63.000000,0.000000,3893.333252,4631.282227,4145.641113,4249.230957,3990.769287,4607.692383,3971.281982,3865.128174,4240.512695,3994.871826,4246.153809,4105.128418,4058.461426,4009.743652,0.000000,4.000000,,,,0.000000,2.000000,4.000000,4.000000,4.000000,4.000000,4.000000,4.000000,4.000000,4.000000,4.000000,2.000000,4.000000,4.000000,1.000000,41.666668
1601229881.850614,64.000000,0.000000,3901.025635,4634.358887,4156.410156,4255.897461,3987.692383,4622.563965,3982.051270,3872.820557,4249.743652,4001.025635,4240.512695,4111.282227,4059.487061,4006.153809,383.000000,4.000000,,,,0.000000,2.000000,4.000000,4.000000,4.000000,4.000000,4.000000,4.000000,4.000000,4.000000,4.000000,2.000000,4.000000,4.000000,1.000000,41.666668
1601229881.858348,65.000000,0.000000,3910.769287,4633.846191,4155.897461,4268.717773,3991.794922,4629.230957,3987.692383,3885.128174,4260.000000,4005.128174,4239.487305,4114.871582,4073.333252,4006.666748,433.000000,4.000000,,,,0.000000,2.000000,4.000000,4.000000,4.000000,4.000000,4.000000,4.000000,4.000000,4.000000,4.000000,2.000000,4.000000,4.000000,1.000000,41.666668
1601229881.866287,66.000000,0.000000,3911.794922,4644.102539,4153.333496,4269.230957,3999.487061,4620.000000,3984.102539,3880.000000,4261.538574,4008.718018,4248.205078,4110.769043,4083.076904,4009.743652,382.000000,4.000000,,,,0.000000,2.000000,4.000000,4.000000,4.000000,4.000000,4.000000,4.000000,4.000000,4.000000,4.000000,2.000000,4.000000,4.000000,1.000000,41.666668
1601229881.874126,67.000000,0.000000,3903.076904,4646.666504,4152.307617,4260.512695,3990.769287,4613.846191,3984.102539,3865.128174,4246.666504,4000.000000,4247.692383,4101.025879,4074.871826,4006.666748,430.000000,4.000000,,,,0.000000,2.000000,4.000000,4.000000,4.000000,4.000000,4.000000,4.000000,4.000000,4.000000,4.000000,2.000000,4.000000,4.000000,1.000000,41.666668
1601229881.881965,68.000000,0.000000,3900.000000,4635.897461,4150.256348,4257.948730,3987.692383,4613.846191,3984.102539,3865.128174,4240.000000,3991.794922,4243.589844,4093.846191,4070.769287,4004.102539,457.000000,4.000000,,,,0.000000,2.000000,4.000000,4.000000,4.000000,4.000000,4.000000,4.000000,4.000000,4.000000,4.000000,2.000000,4.000000,4.000000,1.000000,41.666668
1601229881.889696,69.000000,0.000000,3908.718018,4636.922852,4153.846191,4259.487305,3997.948730,4619.487305,3978.974365,3879.487061,4255.897461,4001.025635,4247.179688,4100.512695,4077.948730,4008.718018,431.000000,4.000000,,,,0.000000,2.000000,4.000000,4.000000,4.000000,4.000000,4.000000,4.000000,4.000000,4.000000,4.000000,2.000000,4.000000,4.000000,1.000000,41.666668
1601229881.897528,70.000000,0.000000,3914.871826,4644.102539,4157.948730,4260.000000,3993.846191,4622.051270,3977.948730,3880.512939,4263.589844,4008.205078,4250.769043,4107.179688,4074.871826,4014.358887,440.000000,4.000000,,,,0.000000,2.000000,4.000000,4.000000,4.000000,4.000000,4.000000,4.000000,4.000000,4.000000,4.000000,2.000000,4.000000,4.000000,1.000000,41.666668
1601229881.905259,71.000000,0.000000,3910.769287,4639.487305,4155.897461,4265.128418,3985.128174,4612.820313,3974.358887,3867.692383,4252.820313,4000.000000,4247.179688,4099.487305,4063.589844,4011.281982,348.000000,4.000000,,,,0.000000,2.000000,4.000000,4.000000,4.000000,4.000000,4.000000,4.000000,4.000000,4.000000,4.000000,2.000000,4.000000,4.000000,1.000000,41.666668
1601229881.913091,72.000000,0.000000,3911.794922,4636.922852,4153.846191,4269.743652,3988.718018,4609.743652,3968.205078,3867.179443,4249.743652,3993.846191,4245.128418,4094.358887,4070.769287,4007.179443,406.000000,4.000000,,,,0.000000,2.000000,4.000000,4.000000,4.000000,4.000000,4.000000,4.000000,4.000000,4.000000,4.000000,2.000000,4.000000,4.000000,1.000000,41.666668
1601229881.920822,73.000000,0.000000,3913.333252,4641.538574,4154.358887,4264.102539,3998.461426,4616.410156,3973.846191,3873.333252,4251.282227,3996.923096,4246.153809,4096.922852,4082.564209,4007.692383,405.000000,4.000000,,,,0.000000,2.000000,4.000000,4.000000,4.000000,4.000000,4.000000,4.000000,4.000000,4.000000,4.000000,2.000000,4.000000,4.000000,1.000000,41.666668
1601229881.928653,74.000000,0.000000,3904.102539,4637.948730,4153.846191,4256.922852,4000.000000,4613.846191,3974.871826,3870.256348,4247.179688,4002.564209,4246.666504,4096.922852,4073.846191,4007.692383,426.000000,4.000000,,,,0.000000,2.000000,4.000000,4.000000,4.000000,4.000000,4.000000,4.000000,4.000000,4.000000,4.000000,2.000000,4.000000,4.000000,1.000000,41.666668
1601229881.936383,75.000000,0.000000,3900.000000,4634.871582,4150.769043,4261.025879,3987.179443,4606.153809,3968.718018,3870.769287,4250.769043,4007.692383,4244.615234,4099.487305,4061.538574,4006.153809,52.000000,4.000000,,,,0.000000,2.000000,4.000000,4.000000,4.000000,4.000000,4.000000,4.000000,4.000000,4.000000,4.000000,2.000000,4.000000,4.000000,1.000000,41.666668
1601229881.944213,76.000000,0.000000,3900.512939,4640.000000,4150.769043,4261.538574,3978.974365,4606.666504,3974.871826,3877.435791,4261.025879,4006.666748,4245.128418,4107.179688,4065.641113,4010.769287,235.000000,4.000000,,,,0.000000,2.000000,4.000000,4.000000,4.000000,4.000000,4.000000,4.000000,4.000000,4.000000,4.000000,2.000000,4.000000,4.000000,1.000000,41.666668
1601229881.951942,77.000000,0.000000,3901.025635,4632.820313,4152.820313,4254.871582,3982.051270,4602.051270,3978.974365,3876.923096,4262.563965,4000.512939,4246.666504,4107.179688,4072.820557,4012.820557,352.000000,4.000000,,,,0.000000,2.000000,4.000000,4.000000,4.000000,4.000000,4.000000,4.000000,4.000000,4.000000,4.000000,2.000000,4.000000,4.000000,1.000000,41.666668
1601229881.959878,78.000000,0.000000,3905.128174,4620.512695,4152.820313,4253.846191,3989.230713,4604.102539,3973.846191,3874.358887,4255.897461,4003.076904,4245.128418,4103.589844,4076.410156,4008.718018,426.000000,4.000000,,,,0.000000,2.000000,4.000000,4.000000,4.000000,4.000000,4.000000,4.000000,4.000000,4.000000,4.000000,2.000000,4.000000,4.000000,1.000000,41.666668
1601229881.967714,79.000000,0.000000,3909.230713,4631.282227,4153.333496,4256.410156,3995.384521,4620.000000,3975.897461,3872.307617,4256.410156,4015.384521,4246.666504,4107.179688,4080.512939,4011.281982,52.000000,4.000000,,,,0.000000,2.000000,4.000000,4.000000,4.000000,4.000000,4.000000,4.000000,4.000000,4.000000,4.000000,2.000000,4.000000,4.000000,1.000000,41.666668
1601229881.975649,80.000000,0.000000,3902.051270,4644.102539,4153.333496,4256.410156,3987.692383,4613.846191,3975.897461,3869.230713,4260.000000,4016.410156,4249.743652,4110.769043,4076.923096,4014.871826,235.000000,4.000000,,,,0.000000,2.000000,4.000000,4.000000,4.000000,4.000000,4.000000,4.000000,4.000000,4.000000,4.000000,2.000000,4.000000,4.000000,1.000000,41.666668
1601229881.983485,81.000000,0.000000,3891.794922,4633.846191,4144.102539,4253.846191,3973.846191,4593.333496,3972.820557,3864.615479,4252.820313,4002.564209,4241.538574,4110.769043,4073.333252,4008.205078,352.000000,4.000000,,,,0.000000,2.000000,4.000000,4.000000,4.000000,4.000000,4.000000,4.000000,4.000000,4.000000,4.000000,2.000000,4.000000,4.000000,1.000000,41.666668
1601229881.991419,82.000000,0.000000,3892.820557,4617.948730,4134.358887,4249.230957,3969.743652,4595.897461,3975.384521,3861.025635,4239.487305,3992.820557,4231.794922,4107.692383,4066.666748,4002.051270,426.000000,4.000000,,,,0.000000,2.000000,4.000000,4.000000,4.000000,4.000000,4.000000,4.000000,4.000000,4.000000,4.000000,2.000000,4.000000,4.000000,1.000000,41.666668
1601229881.999254,83.000000,0.000000,3894.871826,4617.948730,4138.974121,4250.769043,3979.487061,4604.102539,3964.615479,3863.076904,4243.589844,3995.897461,4231.282227,4108.205078,4046.153809,4007.179443,52.000000,4.000000,,,,0.000000,2.000000,4.000000,4.000000,4.000000,4.000000,4.000000,4.000000,4.000000,4.000000,4.000000,2.000000,4.000000,4.000000,1.000000,41.666668
1601229882.007188,84.000000,0.000000,3895.384521,4628.717773,4151.282227,4258.461426,3996.410156,4601.025879,3956.923096,3871.281982,4258.974121,4002.564209,4238.461426,4117.436035,4050.769287,4008.718018,235.000000,4.000000,,,,0.000000,2.000000,4.000000,4.000000,4.000000,4.000000,4.000000,4.000000,4.000000,4.000000,4.000000,2.000000,4.000000,4.000000,1.000000,41.666668
1601229882.015022,85.000000,0.000000,3902.051270,4628.205078,4154.358887,4258.974121,3996.923096,4608.205078,3977.435791,3873.333252,4262.051270,4008.205078,4246.666504,4122.051270,4083.589844,4005.128174,352.000000,4.000000,,,,0.000000,2.000000,4.000000,4.000000,4.000000,4.000000,4.000000,4.000000,4.000000,4.000000,4.000000,2.000000,4.000000,4.000000,1.000000,41.666668
1601229882.022955,86.000000,0.000000,3909.743652,4627.179688,4152.307617,4255.897461,3984.102539,4622.051270,3991.281982,3872.820557,4263.077148,4015.897461,4250.256348,4121.538574,4095.384521,4016.410156,426.000000,4.000000,,,,0.000000,2.000000,4.000000,4.000000,4.000000,4.000000,4.000000,4.000000,4.000000,4.000000,4.000000,2.000000,4.000000,4.000000,1.000000,41.666668
1601229882.030789,87.000000,0.000000,3911.281982,4637.948730,4152.820313,4259.487305,3982.051270,4620.512695,3978.461426,3874.358887,4265.641113,4017.948730,4249.230957,4120.512695,4082.564209,4036.410156,52.000000,4.000000,,,,0.000000,2.000000,4.000000,4.000000,4.000000,4.000000,4.000000,4.000000,4.000000,4.000000,4.000000,2.000000,4.000000,4.000000,1.000000,41.666668
1601229882.038522,88.000000,0.000000,3907.692383,4639.487305,4152.820313,4257.948730,3991.281982,4614.358887,3969.230713,3870.769287,4261.025879,4011.794922,4248.205078,4111.282227,4074.871826,4036.410156,235.000000,4.000000,,,,0.000000,2.000000,4.000000,4.000000,4.000000,4.000000,4.000000,4.000000,4.000000,4.000000,4.000000,2.000000,4.000000,4.000000,1.000000,41.666668
1601229882.046355,89.000000,0.000000,3909.743652,4627.692383,4154.871582,4252.820313,3998.461426,4612.820313,3973.333252,3871.281982,4264.615234,4012.307617,4247.179688,4102.051270,4071.281982,4028.205078,352.000000,4.000000,,,,0.000000,2.000000,4.000000,4.000000,4.000000,4.000000,4.000000,4.000000,4.000000,4.000000,4.000000,2.000000,4.000000,4.000000,1.000000,41.666668
1601229882.054088,90.000000,0.000000,3909.230713,4629.743652,4151.282227,4257.436035,3994.358887,4605.641113,3972.820557,3876.923096,4271.282227,4012.820557,4238.974121,4103.589844,4067.179443,4027.692383,426.000000,4.000000,,,,0.000000,2.000000,4.000000,4.000000,4.000000,4.000000,4.000000,4.000000,4.000000,4.000000,4.000000,2.000000,4.000000,4.000000,1.000000,41.666668
1601229882.061920,91.000000,0.000000,3898.461426,4644.102539,4140.000000,4260.000000,3983.589844,4594.358887,3965.641113,3873.333252,4261.025879,4003.076904,4229.743652,4100.512695,4064.615479,4018.974365,52.000000,4.000000,,,,0.000000,2.000000,4.000000,4.000000,4.000000,4.000000,4.000000,4.000000,4.000000,4.000000,4.000000,2.000000,4.000000,4.000000,1.000000,41.666668
1601229882.069653,92.000000,0.000000,3890.256348,4638.461426,4136.922852,4253.333496,3984.615479,4599.487305,3973.333252,3871.281982,4255.897461,4004.615479,4233.333496,4095.897461,4065.128174,4004.615479,235.000000,4.000000,,,,0.000000,2.000000,4.000000,4.000000,4.000000,4.000000,4.000000,4.000000,4.000000,4.000000,4.000000,2.000000,4.000000,4.000000,1.000000,41.666668
1601229882.077485,93.000000,0.000000,3891.281982,4627.179688,4138.974121,4250.769043,3995.384521,4614.871582,3988.205078,3878.974365,4273.846191,4018.974365,4243.077148,4100.000000,4075.897461,4004.102539,352.000000,4.000000,,,,0.000000,2.000000,4.000000,4.000000,4.000000,4.000000,4.000000,4.000000,4.000000,4.000000,4.000000,2.000000,4.000000,4.000000,1.000000,41.666668
1601229882.085216,94.000000,0.000000,3895.897461,4633.333496,4140.512695,4251.282227,4000.512939,4621.538574,3987.692383,3884.615479,4287.179688,4026.666748,4249.230957,4107.692383,4086.153809,4007.692383,426.000000,4.000000,,,,0.000000,2.000000,4.000000,4.000000,4.000000,4.000000,4.000000,4.000000,4.000000,4.000000,4.000000,2.000000,4.000000,4.000000,1.000000,41.666668
1601229882.093047,95.000000,0.000000,3897.435791,4634.871582,4148.717773,4250.769043,4002.051270,4618.974121,3980.000000,3881.025635,4280.000000,4028.205078,4250.256348,4113.846191,4083.589844,4004.615479,52.000000,4.000000,,,,0.000000,2.000000,4.000000,4.000000,4.000000,4.000000,4.000000,4.000000,4.000000,4.000000,4.000000,2.000000,4.000000,4.000000,1.000000,41.666668
1601229882.100778,96.000000,0.000000,3897.948730,4621.538574,4153.333496,4249.743652,3985.641113,4610.256348,3974.871826,3871.281982,4262.051270,4017.435791,4241.025879,4110.769043,4072.307617,4003.589844,235.000000,4.000000,,,,0.000000,2.000000,4.000000,4.000000,4.000000,4.000000,4.000000,4.000000,4.000000,4.000000,4.000000,2.000000,4.000000,4.000000,1.000000,41.666668
1601229882.108609,97.000000,0.000000,3904.615479,4625.128418,4150.769043,4250.769043,3972.307617,4606.666504,3970.256348,3869.230713,4255.384766,4006.153809,4236.922852,4111.282227,4073.333252,4007.692383,352.000000,4.000000,,,,0.000000,2.000000,4.000000,4.000000,4.000000,4.000000,4.000000,4.000000,4.000000,4.000000,4.000000,2.000000,4.000000,4.000000,1.000000,41.666668
1601229882.116340,98.000000,0.000000,3913.333252,4633.846191,4154.358887,4252.820313,3989.743652,4606.153809,3967.179443,3874.358887,4267.179688,4015.897461,4246.153809,4121.538574,4076.410156,4009.743652,426.000000,4.000000,,,,0.000000,2.000000,4.000000,4.000000,4.000000,4.000000,4.000000,4.000000,4.000000,4.000000,4.000000,2.000000,4.000000,4.000000,1.000000,41.666668
1601229882.124170,99.000000,0.000000,3903.589844,4623.077148,4150.769043,4249.230957,3989.743652,4600.512695,3971.794922,3871.794922,4271.794922,4020.512939,4246.666504,4113.846191,4069.230713,4007.179443,52.000000,4.000000,,,,0.000000,2.000000,4.000000,4.000000,4.000000,4.000000,4.000000,4.000000,4.000000,4.000000,4.000000,2.000000,4.000000,4.000000,1.000000,41.666668
1601229882.131900,100.000000,0.000000,3891.281982,4624.102539,4143.077148,4245.128418,3975.384521,4602.051270,3976.923096,3869.230713,4272.307617,4014.871826,4241.538574,4103.077148,4070.769287,4007.692383,235.000000,4.000000,,,,0.000000,2.000000,4.000000,4.000000,4.000000,4.000000,4.000000,4.000000,4.000000,4.000000,4.000000,2.000000,4.000000,4.000000,1.000000,41.666668
1601229882.139730,101.000000,0.000000,3899.487061,4639.487305,4149.743652,4252.307617,3989.230713,4613.846191,3978.974365,3880.512939,4283.589844,4024.102539,4249.230957,4114.358887,4085.128174,4008.718018,352.000000,4.000000,,,,0.000000,2.000000,4.000000,4.000000,4.000000,4.000000,4.000000,4.000000,4.000000,4.000000,4.000000,2.000000,4.000000,4.000000,1.000000,41.666668
1601229882.147460,102.000000,0.000000,3911.794922,4638.974121,4154.871582,4258.461426,4003.076904,4615.384766,3980.000000,3888.718018,4286.666504,4031.794922,4255.384766,4122.563965,4091.794922,4009.230713,426.000000,4.000000,,,,0.000000,2.000000,4.000000,4.000000,4.000000,4.000000,4.000000,4.000000,4.000000,4.000000,4.000000,2.000000,4.000000,4.000000,1.000000,41.666668
1601229882.155395,103.000000,0.000000,3909.230713,4642.563965,4150.769043,4254.358887,3991.794922,4605.128418,3970.769287,3879.487061,4273.333496,4025.641113,4250.769043,4115.384766,4088.205078,4012.307617,52.000000,4.000000,,,,0.000000,2.000000,4.000000,4.000000,4.000000,4.000000,4.000000,4.000000,4.000000,4.000000,4.000000,2.000000,4.000000,4.000000,1.000000,41.666668
1601229882.163230,104.000000,0.000000,3900.000000,4648.717773,4150.769043,4253.333496,3981.025635,4597.948730,3963.076904,3867.692383,4263.589844,4018.974365,4244.615234,4112.820313,4077.435791,4010.769287,235.000000,4.000000,,,,0.000000,2.000000,4.000000,4.000000,4.000000,4.000000,4.000000,4.000000,4.000000,4.000000,4.000000,2.000000,4.000000,4.000000,1.000000,41.666668
1601229882.171164,105.000000,0.000000,3894.358887,4635.897461,4147.179688,4255.897461,3980.000000,4595.897461,3965.641113,3866.666748,4262.051270,4011.794922,4234.871582,4107.179688,4064.615479,4002.051270,352.000000,4.000000,,,,0.000000,2.000000,4.000000,4.000000,4.000000,4.000000,4.000000,4.000000,4.000000,4.000000,4.000000,2.000000,4.000000,4.000000,1.000000,41.666668
1601229882.178998,106.000000,0.000000,3893.333252,4628.717773,4140.512695,4249.743652,3985.128174,4597.948730,3969.743652,3871.794922,4260.512695,4002.564209,4229.743652,4098.461426,4065.641113,4001.538574,426.000000,4.000000,,,,0.000000,2.000000,4.000000,4.000000,4.000000,4.000000,4.000000,4.000000,4.000000,4.000000,4.000000,2.000000,4.000000,4.000000,1.000000,41.666668
1601229882.186932,107.000000,0.000000,3892.820557,4631.794922,4138.974121,4243.589844,3990.769287,4601.538574,3964.102539,3866.153809,4255.897461,4002.051270,4233.846191,4102.563965,4069.743652,4009.230713,52.000000,4.000000,,,,0.000000,2.000000,4.000000,4.000000,4.000000,4.000000,4.000000,4.000000,4.000000,4.000000,4.000000,2.000000,4.000000,4.000000,1.000000,41.666668
1601229882.194766,108.000000,0.000000,3893.333252,4628.205078,4138.974121,4244.615234,3979.487061,4594.871582,3955.384521,3856.410156,4250.256348,4005.641113,4232.307617,4103.589844,4064.102539,4013.333252,235.000000,4.000000,,,,0.000000,2.000000,4.000000,4.000000,4.000000,4.000000,4.000000,4.000000,4.000000,4.000000,4.000000,2.000000,4.000000,4.000000,1.000000,41.666668
1601229882.202699,109.000000,0.000000,3898.974365,4630.769043,4143.077148,4245.641113,3974.358887,4587.692383,3963.589844,3869.230713,4254.358887,4010.769287,4237.436035,4105.641113,4069.743652,4011.794922,352.000000,4.000000,,,,0.000000,2.000000,4.000000,4.000000,4.000000,4.000000,4.000000,4.000000,4.000000,4.000000,4.000000,2.000000,4.000000,4.000000,1.000000,41.666668
1601229882.210532,110.000000,0.000000,3907.692383,4631.794922,4152.820313,4244.615234,3985.641113,4593.333496,3972.307617,3881.025635,4263.077148,4016.923096,4247.692383,4118.461426,4080.000000,4012.307617,426.000000,4.000000,,,,0.000000,2.000000,4.000000,4.000000,4.000000,4.000000,4.000000,4.000000,4.000000,4.000000,4.000000,2.000000,4.000000,4.000000,1.000000,41.666668
1601229882.218265,111.000000,0.000000,3908.205078,4628.717773,4155.384766,4246.666504,3985.128174,4604.615234,3969.230713,3870.769287,4267.179688,4013.846191,4243.589844,4120.512695,4077.948730,4012.307617,52.000000,4.000000,,,,0.000000,2.000000,4.000000,4.000000,4.000000,4.000000,4.000000,4.000000,4.000000,4.000000,4.000000,2.000000,4.000000,4.000000,1.000000,41.666668
1601229882.226098,112.000000,0.000000,3903.589844,4637.948730,4149.743652,4252.820313,3982.051270,4615.384766,3977.435791,3876.923096,4274.358887,4006.153809,4238.461426,4110.769043,4076.923096,4010.769287,235.000000,4.000000,,,,0.000000,2.000000,4.000000,4.000000,4.000000,4.000000,4.000000,4.000000,4.000000,4.000000,4.000000,2.000000,4.000000,4.000000,1.000000,41.666668
1601229882.233830,113.000000,0.000000,3897.948730,4633.333496,4143.589844,4246.666504,3987.692383,4615.384766,3990.769287,3891.281982,4279.487305,4006.666748,4240.512695,4106.666504,4065.641113,4010.769287,352.000000,4.000000,,,,0.000000,2.000000,4.000000,4.000000,4.000000,4.000000,4.000000,4.000000,4.000000,4.000000,4.000000,2.000000,4.000000,4.000000,1.000000,41.666668
1601229882.241662,114.000000,0.000000,3893.333252,4614.871582,4138.461426,4233.846191,3982.051270,4605.128418,3988.718018,3883.589844,4273.333496,4012.820557,4241.538574,4108.205078,4053.846191,4010.769287,426.000000,4.000000,,,,0.000000,2.000000,4.000000,4.000000,4.000000,4.000000,4.000000,4.000000,4.000000,4.000000,4.000000,2.000000,4.000000,4.000000,1.000000,41.666668
1601229882.249394,115.000000,0.000000,3898.461426,4624.102539,4141.025879,4238.461426,3967.692383,4600.512695,3977.435791,3876.410156,4268.717773,4013.846191,4242.563965,4107.692383,4067.179443,4008.205078,52.000000,4.000000,,,,0.000000,2.000000,4.000000,4.000000,4.000000,4.000000,4.000000,4.000000,4.000000,4.000000,4.000000,2.000000,4.000000,4.000000,1.000000,41.666668
1601229882.257225,116.000000,0.000000,3904.102539,4636.410156,4151.282227,4250.769043,3978.461426,4602.563965,3974.358887,3883.589844,4275.384766,4014.358887,4247.179688,4110.256348,4085.128174,4015.897461,235.000000,4.000000,,,,0.000000,2.000000,4.000000,4.000000,4.000000,4.000000,4.000000,4.000000,4.000000,4.000000,4.000000,2.000000,4.000000,4.000000,1.000000,41.666668
1601229882.264956,117.000000,0.000000,3905.128174,4624.102539,4153.846191,4252.307617,3998.461426,4604.102539,3975.384521,3880.000000,4277.436035,4020.512939,4246.153809,4110.769043,4083.589844,4036.923096,352.000000,4.000000,,,,0.000000,2.000000,4.000000,4.000000,4.000000,4.000000,4.000000,4.000000,4.000000,4.000000,4.000000,2.000000,4.000000,4.000000,1.000000,41.666668
1601229882.272787,118.000000,0.000000,3903.589844,4631.794922,4150.256348,4254.871582,3995.384521,4603.589844,3973.333252,3873.333252,4271.794922,4023.076904,4247.179688,4108.205078,4084.102539,4049.230713,426.000000,4.000000,,,,0.000000,2.000000,4.000000,4.000000,4.000000,4.000000,4.000000,4.000000,4.000000,4.000000,4.000000,2.000000,4.000000,4.000000,1.000000,41.666668
1601229882.280518,119.000000,0.000000,3898.461426,4645.641113,4150.256348,4257.948730,3985.641113,4598.974121,3969.230713,3870.256348,4269.230957,4015.897461,4250.769043,4109.743652,4084.102539,4042.051270,52.000000,4.000000,,,,0.000000,2.000000,4.000000,4.000000,4.000000,4.000000,4.000000,4.000000,4.000000,4.000000,4.000000,2.000000,4.000000,4.000000,1.000000,41.666668
1601229882.288349,120.000000,0.000000,3898.461426,4625.128418,4151.282227,4251.282227,3980.512939,4593.846191,3966.666748,3864.102539,4265.128418,4012.820557,4243.077148,4104.615234,4071.794922,4027.692383,235.000000,4.000000,,,,0.000000,2.000000,4.000000,4.000000,4.000000,4.000000,4.000000,4.000000,4.000000,4.000000,4.000000,2.000000,4.000000,4.000000,1.000000,41.666668
1601229882.296079,121.000000,0.000000,3908.205078,4623.589844,4153.846191,4251.282227,3978.974365,4600.000000,3976.410156,3871.281982,4270.256348,4026.153809,4243.589844,4101.025879,4078.974365,4018.974365,352.000000,4.000000,,,,0.000000,2.000000,4.000000,4.000000,4.000000,4.000000,4.000000,4.000000,4.000000,4.000000,4.000000,2.000000,4.000000,4.000000,1.000000,41.666668
1601229882.303910,122.000000,0.000000,3914.871826,4653.333496,4155.897461,4263.077148,3991.281982,4606.666504,3982.051270,3886.666748,4286.153809,4039.487061,4253.333496,4113.333496,4097.436035,4015.897461,426.000000,4.000000,,,,0.000000,2.000000,4.000000,4.000000,4.000000,4.000000,4.000000,4.000000,4.000000,4.000000,4.000000,2.000000,4.000000,4.000000,1.000000,41.666668
1601229882.311640,123.000000,0.000000,3910.769287,4650.256348,4155.897461,4259.487305,4006.666748,4598.461426,3970.769287,3887.179443,4287.692383,4037.435791,4252.307617,4119.487305,4087.179443,4013.333252,52.000000,4.000000,,,,0.000000,2.000000,4.000000,4.000000,4.000000,4.000000,4.000000,4.000000,4.000000,4.000000,4.000000,2.000000,4.000000,4.000000,1.000000,41.666668
1601229882.319470,124.000000,0.000000,3909.743652,4631.282227,4160.000000,4248.717773,3994.871826,4591.794922,3967.692383,3883.076904,4279.487305,4029.230713,4244.615234,4110.256348,4070.256348,4010.769287,235.000000,4.000000,,,,0.000000,2.000000,4.000000,4.000000,4.000000,4.000000,4.000000,4.000000,4.000000,4.000000,4.000000,2.000000,4.000000,4.000000,1.000000,41.666668
1601229882.327200,125.000000,0.000000,3912.820557,4644.102539,4167.692383,4260.512695,3976.923096,4597.948730,3979.487061,3883.589844,4282.563965,4028.205078,4247.692383,4107.179688,4083.076904,4012.820557,352.000000,4.000000,,,,0.000000,2.000000,4.000000,4.000000,4.000000,4.000000,4.000000,4.000000,4.000000,4.000000,4.000000,2.000000,4.000000,4.000000,1.000000,41.666668
1601229882.335029,126.000000,0.000000,3913.333252,4655.384766,4169.230957,4271.282227,3983.589844,4609.230957,3983.589844,3877.948730,4285.128418,4030.769287,4253.846191,4112.307617,4102.051270,4015.897461,426.000000,4.000000,,,,0.000000,2.000000,4.000000,4.000000,4.000000,4.000000,4.000000,4.000000,4.000000,4.000000,4.000000,2.000000,4.000000,4.000000,1.000000,41.666668
1601229882.342758,127.000000,0.000000,3912.820557,4642.051270,4163.589844,4263.589844,3989.743652,4609.743652,3974.358887,3876.410156,4281.538574,4029.230713,4250.769043,4109.230957,4096.410156,4016.410156,52.000000,4.000000,,,,0.000000,2.000000,4.000000,4.000000,4.000000,4.000000,4.000000,4.000000,4.000000,4.000000,4.000000,2.000000,4.000000,4.000000,1.000000,41.666668
1601229882.350692,128.000000,0.000000,3911.794922,4638.461426,4158.461426,4258.974121,3991.281982,4601.025879,3971.281982,3881.025635,4282.563965,4027.179443,4247.179688,4105.128418,4083.076904,4015.384521,235.000000,4.000000,,,,0.000000,2.000000,4.000000,4.000000,4.000000,4.000000,4.000000,4.000000,4.000000,4.000000,4.000000,2.000000,4.000000,4.000000,1.000000,41.666668
1601229882.358526,0.000000,0.000000,3910.769287,4647.692383,4156.922852,4265.128418,3993.846191,4597.436035,3976.923096,3877.435791,4278.974121,4025.128174,4252.307617,4107.179688,4080.512939,4013.333252,383.000000,4.000000,,,,0.000000,2.000000,4.000000,4.000000,4.000000,4.000000,4.000000,4.000000,4.000000,4.000000,4.000000,2.000000,4.000000,4.000000,1.000000,41.666668
1601229882.366460,1.000000,0.000000,3909.743652,4650.256348,4156.922852,4267.179688,3988.205078,4598.461426,3978.461426,3876.410156,4273.846191,4026.153809,4257.436035,4106.666504,4086.153809,4012.307617,433.000000,4.000000,,,,0.000000,2.000000,4.000000,4.000000,4.000000,4.000000,4.000000,4.000000,4.000000,4.000000,4.000000,2.000000,4.000000,4.000000,1.000000,41.666668
1601229882.374294,2.000000,0.000000,3912.307617,4641.538574,4155.384766,4261.538574,3991.281982,4596.922852,3973.846191,3880.512939,4277.436035,4030.769287,4252.307617,4106.666504,4088.205078,4012.307617,383.000000,4.000000,,,,0.000000,2.000000,4.000000,4.000000,4.000000,4.000000,4.000000,4.000000,4.000000,4.000000,4.000000,2.000000,4.000000,4.000000,1.000000,41.666668
1601229882.382227,3.000000,0.000000,3913.846191,4629.743652,4160.512695,4257.436035,3994.871826,4592.307617,3969.230713,3875.384521,4275.897461,4028.205078,4249.230957,4108.205078,4080.512939,4010.769287,430.000000,4.000000,,,,0.000000,2.000000,4.000000,4.000000,4.000000,4.000000,4.000000,4.000000,4.000000,4.000000,4.000000,2.000000,4.000000,4.000000,1.000000,41.666668
1601229882.390060,4.000000,0.000000,3909.743652,4631.794922,4163.589844,4261.538574,3978.461426,4593.333496,3973.846191,3871.794922,4272.820313,4019.487061,4248.717773,4105.641113,4076.923096,4009.743652,457.000000,4.000000,,,,0.000000,2.000000,4.000000,4.000000,4.000000,4.000000,4.000000,4.000000,4.000000,4.000000,4.000000,2.000000,4.000000,4.000000,1.000000,41.666668
1601229882.397792,5.000000,0.000000,3907.692383,4645.641113,4160.000000,4265.641113,3979.487061,4596.410156,3975.897461,3880.000000,4274.871582,4022.564209,4249.230957,4106.153809,4086.153809,4013.846191,431.000000,4.000000,,,,0.000000,2.000000,4.000000,4.000000,4.000000,4.000000,4.000000,4.000000,4.000000,4.000000,4.000000,2.000000,4.000000,4.000000,1.000000,41.666668
1601229882.405625,6.000000,0.000000,3913.333252,4648.205078,4165.128418,4264.615234,4002.051270,4592.820313,3970.769287,3881.025635,4274.358887,4030.769287,4255.897461,4115.384766,4095.384521,4015.897461,440.000000,4.000000,,,,0.000000,2.000000,4.000000,4.000000,4.000000,4.000000,4.000000,4.000000,4.000000,4.000000,4.000000,2.000000,4.000000,4.000000,1.000000,41.666668
1601229882.413357,7.000000,0.000000,3915.384521,4637.948730,4171.282227,4266.666504,3993.333252,4588.205078,3967.179443,3873.846191,4270.256348,4022.051270,4256.410156,4122.051270,4095.897461,4016.923096,348.000000,4.000000,,,,0.000000,2.000000,4.000000,4.000000,4.000000,4.000000,4.000000,4.000000,4.000000,4.000000,4.000000,2.000000,4.000000,4.000000,1.000000,41.666668
1601229882.421189,8.000000,0.000000,3911.281982,4636.410156,4167.692383,4274.871582,3979.487061,4591.794922,3970.769287,3874.358887,4268.205078,4015.384521,4252.307617,4122.051270,4093.333252,4021.538574,406.000000,4.000000,,,,0.000000,2.000000,4.000000,4.000000,4.000000,4.000000,4.000000,4.000000,4.000000,4.000000,4.000000,2.000000,4.000000,4.000000,1.000000,41.666668
1601229882.428921,9.000000,0.000000,3918.461426,4647.179688,4166.666504,4280.512695,4001.025635,4601.538574,3981.538574,3874.871826,4270.769043,4021.025635,4256.410156,4123.077148,4090.769287,4025.641113,405.000000,4.000000,,,,0.000000,2.000000,4.000000,4.000000,4.000000,4.000000,4.000000,4.000000,4.000000,4.000000,4.000000,2.000000,4.000000,4.000000,1.000000,41.666668
1601229882.436753,10.000000,0.000000,3923.076904,4657.948730,4170.769043,4281.538574,4010.769287,4610.256348,3991.281982,3874.358887,4275.384766,4020.000000,4261.025879,4123.589844,4086.666748,4024.615479,426.000000,4.000000,,,,0.000000,2.000000,4.000000,4.000000,4.000000,4.000000,4.000000,4.000000,4.000000,4.000000,4.000000,2.000000,4.000000,4.000000,1.000000,41.666668
1601229882.444484,11.000000,0.000000,3916.410156,4662.563965,4170.769043,4279.487305,3993.333252,4615.897461,3988.205078,3875.384521,4279.487305,4009.230713,4251.794922,4120.512695,4085.128174,4025.128174,49.000000,4.000000,,,,0.000000,2.000000,4.000000,4.000000,4.000000,4.000000,4.000000,4.000000,4.000000,4.000000,4.000000,2.000000,4.000000,4.000000,1.000000,41.666668
1601229882.452315,12.000000,0.000000,3916.410156,4661.025879,4170.256348,4279.487305,3992.307617,4608.717773,3973.333252,3880.000000,4277.948730,4007.179443,4252.307617,4121.538574,4094.358887,4027.179443,235.000000,4.000000,,,,0.000000,2.000000,4.000000,4.000000,4.000000,4.000000,4.000000,4.000000,4.000000,4.000000,4.000000,2.000000,4.000000,4.000000,1.000000,41.666668
1601229882.460046,13.000000,0.000000,3919.487061,4654.871582,4170.256348,4281.538574,3996.923096,4594.358887,3962.564209,3874.871826,4274.358887,4008.205078,4261.538574,4124.102539,4102.051270,4027.179443,352.000000,4.000000,,,,0.000000,2.000000,4.000000,4.000000,4.000000,4.000000,4.000000,4.000000,4.000000,4.000000,4.000000,2.000000,4.000000,4.000000,1.000000,41.666668
1601229882.467876,14.000000,0.000000,3914.871826,4648.717773,4168.205078,4280.000000,3984.615479,4590.256348,3964.615479,3868.205078,4268.717773,4003.076904,4254.358887,4122.051270,4094.871826,4026.153809,426.000000,4.000000,,,,0.000000,2.000000,4.000000,4.000000,4.000000,4.000000,4.000000,4.000000,4.000000,4.000000,4.000000,2.000000,4.000000,4.000000,1.000000,41.666668
1601229882.475607,15.000000,0.000000,3912.307617,4647.692383,4168.205078,4277.436035,3986.153809,4599.487305,3976.923096,3875.384521,4268.205078,4001.025635,4248.205078,4121.538574,4086.666748,4027.179443,49.000000,4.000000,,,,0.000000,2.000000,4.000000,4.000000,4.000000,4.000000,4.000000,4.000000,4.000000,4.000000,4.000000,2.000000,4.000000,4.000000,1.000000,41.666668
1601229882.483437,16.000000,0.000000,3912.820557,4649.230957,4166.666504,4274.871582,4001.025635,4604.615234,3981.025635,3878.974365,4274.358887,4005.641113,4252.307617,4122.563965,4082.564209,4038.974365,0.000000,4.000000,,,,0.000000,2.000000,4.000000,4.000000,4.000000,4.000000,4.000000,4.000000,4.000000,4.000000,4.000000,2.000000,4.000000,4.000000,1.000000,41.666668
1601229882.491167,17.000000,0.000000,3909.743652,4644.615234,4166.666504,4269.743652,3997.435791,4597.436035,3974.358887,3870.769287,4276.410156,4013.846191,4252.307617,4123.077148,4079.487061,4052.820557,0.000000,4.000000,,,,0.000000,2.000000,4.000000,4.000000,4.000000,4.000000,4.000000,4.000000,4.000000,4.000000,4.000000,2.000000,4.000000,4.000000,1.000000,41.666668
1601229882.498997,18.000000,0.000000,3911.281982,4638.461426,4170.256348,4269.230957,3982.051270,4593.333496,3976.410156,3868.718018,4273.333496,4016.410156,4247.692383,4122.051270,4085.641113,4052.820557,0.000000,4.000000,,,,0.000000,2.000000,4.000000,4.000000,4.000000,4.000000,4.000000,4.000000,4.000000,4.000000,4.000000,2.000000,4.000000,4.000000,1.000000,41.666668
1601229882.506726,19.000000,0.000000,3911.281982,4640.000000,4166.153809,4273.846191,3980.512939,4595.897461,3978.974365,3871.281982,4273.333496,4014.871826,4249.743652,4122.563965,4091.281982,4042.051270,0.000000,4.000000,,,,0.000000,2.000000,4.000000,4.000000,4.000000,4.000000,4.000000,4.000000,4.000000,4.000000,4.000000,2.000000,4.000000,4.000000,1.000000,41.666668
1601229882.514556,20.000000,0.000000,3904.102539,4640.000000,4153.333496,4271.794922,3983.076904,4590.256348,3969.743652,3859.487061,4271.794922,4010.256348,4251.282227,4121.538574,4080.000000,4030.769287,0.000000,4.000000,,,,0.000000,2.000000,4.000000,4.000000,4.000000,4.000000,4.000000,4.000000,4.000000,4.000000,4.000000,2.000000,4.000000,4.000000,1.000000,41.666668
1601229882.522284,21.000000,0.000000,3901.538574,4641.025879,4151.282227,4267.692383,3980.512939,4588.717773,3964.102539,3848.718018,4268.717773,4002.564209,4246.153809,4116.922852,4073.846191,4021.025635,0.000000,4.000000,,,,0.000000,2.000000,4.000000,4.000000,4.000000,4.000000,4.000000,4.000000,4.000000,4.000000,4.000000,2.000000,4.000000,4.000000,1.000000,41.666668
1601229882.530218,22.000000,0.000000,3906.153809,4652.820313,4160.512695,4268.717773,3987.179443,4603.589844,3968.718018,3849.743652,4270.256348,4005.128174,4246.666504,4124.615234,4084.615479,4016.923096,0.000000,4.000000,,,,0.000000,2.000000,4.000000,4.000000,4.000000,4.000000,4.000000,4.000000,4.000000,4.000000,4.000000,2.000000,4.000000,4.000000,1.000000,41.666668
1601229882.538053,23.000000,0.000000,3909.230713,4655.384766,4162.563965,4268.205078,4001.538574,4603.589844,3967.179443,3852.820557,4271.794922,4014.871826,4254.358887,4134.871582,4093.846191,4015.897461,0.000000,4.000000,,,,0.000000,2.000000,4.000000,4.000000,4.000000,4.000000,4.000000,4.000000,4.000000,4.000000,4.000000,2.000000,4.000000,4.000000,1.000000,41.666668
1601229882.545986,24.000000,0.000000,3910.256348,4639.487305,4158.974121,4262.563965,3993.333252,4584.102539,3963.076904,3856.923096,4273.333496,4018.974365,4256.410156,4131.794922,4098.974121,4024.102539,0.000000,4.000000,,,,0.000000,2.000000,4.000000,4.000000,4.000000,4.000000,4.000000,4.000000,4.000000,4.000000,4.000000,2.000000,4.000000,4.000000,1.000000,41.666668
1601229882.553820,25.000000,0.000000,3914.358887,4635.384766,4166.153809,4269.230957,3983.076904,4587.179688,3970.256348,3859.487061,4279.487305,4021.538574,4257.948730,4130.769043,4107.692383,4036.923096,0.000000,4.000000,,,,0.000000,2.000000,4.000000,4.000000,4.000000,4.000000,4.000000,4.000000,4.000000,4.000000,4.000000,2.000000,4.000000,4.000000,1.000000,41.666668
1601229882.561753,26.000000,0.000000,3916.923096,4654.871582,4175.897461,4284.615234,3998.974365,4602.563965,3974.871826,3856.923096,4280.512695,4026.153809,4259.487305,4132.307617,4106.153809,4033.333252,0.000000,4.000000,,,,0.000000,2.000000,4.000000,4.000000,4.000000,4.000000,4.000000,4.000000,4.000000,4.000000,4.000000,2.000000,4.000000,4.000000,1.000000,41.666668
1601229882.569586,27.000000,0.000000,3911.794922,4664.102539,4167.692383,4283.077148,3997.435791,4593.333496,3968.718018,3855.897461,4270.769043,4022.051270,4254.358887,4123.077148,4090.769287,4018.974365,0.000000,4.000000,,,,0.000000,2.000000,4.000000,4.000000,4.000000,4.000000,4.000000,4.000000,4.000000,4.000000,4.000000,2.000000,4.000000,4.000000,1.000000,41.666668
1601229882.577519,28.000000,0.000000,3907.692383,4653.846191,4155.384766,4271.282227,3985.128174,4590.256348,3967.692383,3859.487061,4270.769043,4019.487061,4253.846191,4112.307617,4085.128174,4019.487061,0.000000,4.000000,,,,0.000000,2.000000,4.000000,4.000000,4.000000,4.000000,4.000000,4.000000,4.000000,4.000000,4.000000,2.000000,4.000000,4.000000,1.000000,41.666668
1601229882.585352,29.000000,0.000000,3910.769287,4640.000000,4156.922852,4264.102539,3995.384521,4604.615234,3973.333252,3860.512939,4278.974121,4025.128174,4258.461426,4110.769043,4087.179443,4023.076904,0.000000,4.000000,,,,0.000000,2.000000,4.000000,4.000000,4.000000,4.000000,4.000000,4.000000,4.000000,4.000000,4.000000,2.000000,4.000000,4.000000,1.000000,41.666668
1601229882.593084,30.000000,0.000000,3910.256348,4631.794922,4157.948730,4262.051270,3995.384521,4602.051270,3972.307617,3856.410156,4277.436035,4021.025635,4250.769043,4105.641113,4074.871826,4016.923096,0.000000,4.000000,,,,0.000000,2.000000,4.000000,4.000000,4.000000,4.000000,4.000000,4.000000,4.000000,4.000000,4.000000,2.000000,4.000000,4.000000,1.000000,41.666668
1601229882.600916,31.000000,0.000000,3907.692383,4632.820313,4152.820313,4262.051270,3977.948730,4590.256348,3968.205078,3857.435791,4273.333496,4013.333252,4244.615234,4101.538574,4073.333252,4014.358887,0.000000,4.000000,,,,0.000000,2.000000,4.000000,4.000000,4.000000,4.000000,4.000000,4.000000,4.000000,4.000000,4.000000,2.000000,4.000000,4.000000,1.000000,41.666668
1601229882.608648,32.000000,0.000000,3906.666748,4641.025879,4155.384766,4265.128418,3976.923096,4592.307617,3973.846191,3861.025635,4277.436035,4016.410156,4251.282227,4104.102539,4096.922852,4012.820557,0.000000,4.000000,,,,0.000000,2.000000,4.000000,4.000000,4.000000,4.000000,4.000000,4.000000,4.000000,4.000000,4.000000,2.000000,4.000000,4.000000,1.000000,41.666668
1601229882.616479,33.000000,0.000000,3905.641113,4644.615234,4159.487305,4268.205078,3989.743652,4598.974121,3980.512939,3857.948730,4278.461426,4019.487061,4250.769043,4106.153809,4100.512695,4013.846191,0.000000,4.000000,,,,0.000000,2.000000,4.000000,4.000000,4.000000,4.000000,4.000000,4.000000,4.000000,4.000000,4.000000,2.000000,4.000000,4.000000,1.000000,41.666668
1601229882.624210,34.000000,0.000000,3907.692383,4646.666504,4155.897461,4266.666504,4004.615479,4601.538574,3977.435791,3854.358887,4274.358887,4023.589844,4251.794922,4108.205078,4086.153809,4018.974365,0.000000,4.000000,,,,0.000000,2.000000,4.000000,4.000000,4.000000,4.000000,4.000000,4.000000,4.000000,4.000000,4.000000,2.000000,4.000000,4.000000,1.000000,41.666668
1601229882.632041,35.000000,0.000000,3909.743652,4651.282227,4157.948730,4268.205078,4007.179443,4600.512695,3968.205078,3855.897461,4277.948730,4028.718018,4258.461426,4107.692383,4091.794922,4018.974365,0.000000,4.000000,,,,0.000000,2.000000,4.000000,4.000000,4.000000,4.000000,4.000000,4.000000,4.000000,4.000000,4.000000,2.000000,4.000000,4.000000,1.000000,41.666668
1601229882.639772,36.000000,0.000000,3910.769287,4651.282227,4164.615234,4276.922852,3989.743652,4594.871582,3966.666748,3855.384521,4280.000000,4021.025635,4253.333496,4105.128418,4100.512695,4016.923096,0.000000,4.000000,,,,0.000000,2.000000,4.000000,4.000000,4.000000,4.000000,4.000000,4.000000,4.000000,4.000000,4.000000,2.000000,4.000000,4.000000,1.000000,41.666668
1601229882.647603,37.000000,0.000000,3913.333252,4652.307617,4166.666504,4278.974121,3988.718018,4595.897461,3976.410156,3854.358887,4271.282227,4009.230713,4247.179688,4104.615234,4083.076904,4020.512939,0.000000,4.000000,,,,0.000000,2.000000,4.000000,4.000000,4.000000,4.000000,4.000000,4.000000,4.000000,4.000000,4.000000,2.000000,4.000000,4.000000,1.000000,41.666668
1601229882.655333,38.000000,0.000000,3909.230713,4650.769043,4162.051270,4270.769043,4001.538574,4603.589844,3978.461426,3856.923096,4269.230957,4010.256348,4247.179688,4103.077148,4069.230713,4020.000000,0.000000,4.000000,,,,0.000000,2.000000,4.000000,4.000000,4.000000,4.000000,4.000000,4.000000,4.000000,4.000000,4.000000,2.000000,4.000000,4.000000,1.000000,41.666668
1601229882.663163,39.000000,0.000000,3900.512939,4641.025879,4155.897461,4268.717773,3990.769287,4598.974121,3966.153809,3854.358887,4273.846191,4014.358887,4245.641113,4097.948730,4083.076904,4016.410156,0.000000,4.000000,,,,0.000000,2.000000,4.000000,4.000000,4.000000,4.000000,4.000000,4.000000,4.000000,4.000000,4.000000,2.000000,4.000000,4.000000,1.000000,41.666668
1601229882.670893,40.000000,0.000000,3903.076904,4644.615234,4158.461426,4271.794922,3984.102539,4595.384766,3962.564209,3850.769287,4277.436035,4017.435791,4245.641113,4100.000000,4100.000000,4018.974365,0.000000,4.000000,,,,0.000000,2.000000,4.000000,4.000000,4.000000,4.000000,4.000000,4.000000,4.000000,4.000000,4.000000,2.000000,4.000000,4.000000,1.000000,41.666668
1601229882.678723,41.000000,0.000000,3912.820557,4652.307617,4170.769043,4266.666504,4006.666748,4602.051270,3971.794922,3856.923096,4282.051270,4027.179443,4253.333496,4112.820313,4097.436035,4026.153809,0.000000,4.000000,,,,0.000000,2.000000,4.000000,4.000000,4.000000,4.000000,4.000000,4.000000,4.000000,4.000000,4.000000,2.000000,4.000000,4.000000,1.000000,41.666668
1601229882.686451,42.000000,0.000000,3913.333252,4642.051270,4171.794922,4265.641113,4015.384521,4596.410156,3972.820557,3862.564209,4284.615234,4029.743652,4253.846191,4115.897461,4087.692383,4025.128174,0.000000,4.000000,,,,0.000000,2.000000,4.000000,4.000000,4.000000,4.000000,4.000000,4.000000,4.000000,4.000000,4.000000,2.000000,4.000000,4.000000,1.000000,41.666668
1601229882.694386,43.000000,0.000000,3909.743652,4634.871582,4157.436035,4271.282227,3987.692383,4582.051270,3965.641113,3856.923096,4275.384766,4017.948730,4248.717773,4110.256348,4085.641113,4022.051270,0.000000,4.000000,,,,0.000000,2.000000,4.000000,4.000000,4.000000,4.000000,4.000000,4.000000,4.000000,4.000000,4.000000,2.000000,4.000000,4.000000,1.000000,41.666668
1601229882.702220,44.000000,0.000000,3905.641113,4640.000000,4154.358887,4267.179688,3967.692383,4587.692383,3969.230713,3852.307617,4267.179688,4013.333252,4249.743652,4114.871582,4088.718018,4025.128174,0.000000,4.000000,,,,0.000000,2.000000,4.000000,4.000000,4.000000,4.000000,4.000000,4.000000,4.000000,4.000000,4.000000,2.000000,4.000000,4.000000,1.000000,41.666668
1601229882.710154,45.000000,0.000000,3900.512939,4633.333496,4160.000000,4260.000000,3980.512939,4601.538574,3979.487061,3857.435791,4272.307617,4017.435791,4251.794922,4117.948730,4087.692383,4023.076904,0.000000,4.000000,,,,0.000000,2.000000,4.000000,4.000000,4.000000,4.000000,4.000000,4.000000,4.000000,4.000000,4.000000,2.000000,4.000000,4.000000,1.000000,41.666668
1601229882.717988,46.000000,0.000000,3899.487061,4622.563965,4155.897461,4262.051270,3997.948730,4596.922852,3974.871826,3855.897461,4269.743652,4010.769287,4247.692383,4107.692383,4075.897461,4016.410156,0.000000,4.000000,,,,0.000000,2.000000,4.000000,4.000000,4.000000,4.000000,4.000000,4.000000,4.000000,4.000000,4.000000,2.000000,4.000000,4.000000,1.000000,41.666668
1601229882.725921,47.000000,0.000000,3902.051270,4628.205078,4150.769043,4267.692383,3991.794922,4585.128418,3964.615479,3848.718018,4256.410156,4000.512939,4244.102539,4104.615234,4063.589844,4017.435791,0.000000,4.000000,,,,0.000000,2.000000,4.000000,4.000000,4.000000,4.000000,4.000000,4.000000,4.000000,4.000000,4.000000,2.000000,4.000000,4.000000,1.000000,41.666668
1601229882.733755,48.000000,0.000000,3904.615479,4645.128418,4157.948730,4267.692383,3991.794922,4588.717773,3971.281982,3856.410156,4260.000000,4005.128174,4247.692383,4117.948730,4074.358887,4023.076904,0.000000,4.000000,,,,0.000000,2.000000,4.000000,4.000000,4.000000,4.000000,4.000000,4.000000,4.000000,4.000000,4.000000,2.000000,4.000000,4.000000,1.000000,41.666668
1601229882.741688,49.000000,0.000000,3912.307617,4654.358887,4167.692383,4269.230957,4002.564209,4598.974121,3972.820557,3862.564209,4278.461426,4016.410156,4248.717773,4122.051270,4091.281982,4022.051270,0.000000,4.000000,,,,0.000000,2.000000,4.000000,4.000000,4.000000,4.000000,4.000000,4.000000,4.000000,4.000000,4.000000,2.000000,4.000000,4.000000,1.000000,41.666668
1601229882.749520,50.000000,0.000000,3909.230713,4644.102539,4160.000000,4269.743652,3992.820557,4590.769043,3950.769287,3847.179443,4275.384766,4011.794922,4242.051270,4110.256348,4088.718018,4017.948730,0.000000,4.000000,,,,0.000000,2.000000,4.000000,4.000000,4.000000,4.000000,4.000000,4.000000,4.000000,4.000000,4.000000,2.000000,4.000000,4.000000,1.000000,41.666668
1601229882.757453,51.000000,0.000000,3896.923096,4637.436035,4147.692383,4267.692383,3982.564209,4574.871582,3945.128174,3837.435791,4262.051270,4005.128174,4240.512695,4105.641113,4077.435791,4016.410156,0.000000,4.000000,,,,0.000000,2.000000,4.000000,4.000000,4.000000,4.000000,4.000000,4.000000,4.000000,4.000000,4.000000,2.000000,4.000000,4.000000,1.000000,41.666668
1601229882.765285,52.000000,0.000000,3899.487061,4649.230957,4155.897461,4269.230957,3991.794922,4581.538574,3967.179443,3849.743652,4268.717773,4014.358887,4246.666504,4115.384766,4078.974365,4020.512939,0.000000,4.000000,,,,0.000000,2.000000,4.000000,4.000000,4.000000,4.000000,4.000000,4.000000,4.000000,4.000000,4.000000,2.000000,4.000000,4.000000,1.000000,41.666668
1601229882.773017,53.000000,0.000000,3911.281982,4651.794922,4168.717773,4270.256348,3996.410156,4598.974121,3972.307617,3858.461426,4279.487305,4024.102539,4250.256348,4125.641113,4086.666748,4024.102539,0.000000,4.000000,,,,0.000000,2.000000,4.000000,4.000000,4.000000,4.000000,4.000000,4.000000,4.000000,4.000000,4.000000,2.000000,4.000000,4.000000,1.000000,41.666668
1601229882.780849,54.000000,0.000000,3909.230713,4638.461426,4160.000000,4264.102539,3980.512939,4591.282227,3955.897461,3852.820557,4271.794922,4015.897461,4248.205078,4123.077148,4085.641113,4022.051270,0.000000,4.000000,,,,0.000000,2.000000,4.000000,4.000000,4.000000,4.000000,4.000000,4.000000,4.000000,4.000000,4.000000,2.000000,4.000000,4.000000,1.000000,41.666668
1601229882.788580,55.000000,0.000000,3897.948730,4636.410156,4149.743652,4253.333496,3980.000000,4573.846191,3953.333252,3850.256348,4264.102539,4006.666748,4246.153809,4117.436035,4075.897461,4017.435791,0.000000,4.000000,,,,0.000000,2.000000,4.000000,4.000000,4.000000,4.000000,4.000000,4.000000,4.000000,4.000000,4.000000,2.000000,4.000000,4.000000,1.000000,41.666668
1601229882.796411,56.000000,0.000000,3897.948730,4638.461426,4152.307617,4249.230957,3993.846191,4578.974121,3965.641113,3856.923096,4269.230957,4013.846191,4245.641113,4119.487305,4073.846191,4015.897461,0.000000,4.000000,,,,0.000000,2.000000,4.000000,4.000000,4.000000,4.000000,4.000000,4.000000,4.000000,4.000000,4.000000,2.000000,4.000000,4.000000,1.000000,41.666668
1601229882.804142,57.000000,0.000000,3903.076904,4636.410156,4154.358887,4256.922852,3990.769287,4597.436035,3971.281982,3855.897461,4273.333496,4021.025635,4250.256348,4123.077148,4086.666748,4017.435791,0.000000,4.000000,,,,0.000000,2.000000,4.000000,4.000000,4.000000,4.000000,4.000000,4.000000,4.000000,4.000000,4.000000,2.000000,4.000000,4.000000,1.000000,41.666668
1601229882.811973,58.000000,0.000000,3900.000000,4637.436035,4149.230957,4257.948730,3978.974365,4590.769043,3959.487061,3838.974365,4259.487305,4011.281982,4248.205078,4114.358887,4086.666748,4017.435791,0.000000,4.000000,,,,0.000000,2.000000,4.000000,4.000000,4.000000,4.000000,4.000000,4.000000,4.000000,4.000000,4.000000,2.000000,4.000000,4.000000,1.000000,41.666668
1601229882.819704,59.000000,0.000000,3894.358887,4626.666504,4147.692383,4243.077148,3976.410156,4569.230957,3947.179443,3827.179443,4242.563965,3996.923096,4234.358887,4101.538574,4066.666748,4012.820557,0.000000,4.000000,,,,0.000000,2.000000,4.000000,4.000000,4.000000,4.000000,4.000000,4.000000,4.000000,4.000000,4.000000,2.000000,4.000000,4.000000,1.000000,41.666668
1601229882.827534,60.000000,0.000000,3901.025635,4618.461426,4149.743652,4243.589844,3981.538574,4570.256348,3957.435791,3841.538574,4249.743652,4000.512939,4233.333496,4104.615234,4067.179443,4011.794922,0.000000,4.000000,,,,0.000000,2.000000,4.000000,4.000000,4.000000,4.000000,4.000000,4.000000,4.000000,4.000000,4.000000,2.000000,4.000000,4.000000,1.000000,41.666668
1601229882.835264,61.000000,0.000000,3916.410156,4644.615234,4154.871582,4266.666504,3987.179443,4585.641113,3968.718018,3861.025635,4275.384766,4020.512939,4248.717773,4123.589844,4095.384521,4016.923096,0.000000,4.000000,,,,0.000000,2.000000,4.000000,4.000000,4.000000,4.000000,4.000000,4.000000,4.000000,4.000000,4.000000,2.000000,4.000000,4.000000,1.000000,41.666668
1601229882.843094,62.000000,0.000000,3924.102539,4675.897461,4167.692383,4282.051270,4000.512939,4595.897461,3965.641113,3864.102539,4295.384766,4038.461426,4260.512695,4138.974121,4116.410156,4020.512939,0.000000,4.000000,,,,0.000000,2.000000,4.000000,4.000000,4.000000,4.000000,4.000000,4.000000,4.000000,4.000000,4.000000,2.000000,4.000000,4.000000,1.000000,41.666668
1601229882.850824,63.000000,0.000000,3924.102539,4664.615234,4173.846191,4275.384766,4004.102539,4595.384766,3964.615479,3854.358887,4285.128418,4037.948730,4258.974121,4133.846191,4102.563965,4021.025635,0.000000,4.000000,,,,0.000000,2.000000,4.000000,4.000000,4.000000,4.000000,4.000000,4.000000,4.000000,4.000000,4.000000,2.000000,4.000000,4.000000,1.000000,41.666668
1601229882.858654,64.000000,0.000000,3914.871826,4639.487305,4161.025879,4261.025879,3985.128174,4582.563965,3961.025635,3843.589844,4261.025879,4021.538574,4250.256348,4114.871582,4080.000000,4016.923096,383.000000,4.000000,,,,0.000000,2.000000,4.000000,4.000000,4.000000,4.000000,4.000000,4.000000,4.000000,4.000000,4.000000,2.000000,4.000000,4.000000,1.000000,41.666668
1601229882.866383,65.000000,0.000000,3908.205078,4644.615234,4149.230957,4254.871582,3975.384521,4574.358887,3949.743652,3840.000000,4261.025879,4013.846191,4241.538574,4104.102539,4076.923096,4008.718018,433.000000,4.000000,,,,0.000000,2.000000,4.000000,4.000000,4.000000,4.000000,4.000000,4.000000,4.000000,4.000000,4.000000,2.000000,4.000000,4.000000,1.000000,41.666668
1601229882.874212,66.000000,0.000000,3908.205078,4657.436035,4152.307617,4258.461426,3982.051270,4580.512695,3950.256348,3844.102539,4272.307617,4017.948730,4240.512695,4104.615234,4082.051270,4011.281982,383.000000,4.000000,,,,0.000000,2.000000,4.000000,4.000000,4.000000,4.000000,4.000000,4.000000,4.000000,4.000000,4.000000,2.000000,4.000000,4.000000,1.000000,41.666668
1601229882.881941,67.000000,0.000000,3910.769287,4654.358887,4155.384766,4259.487305,3995.897461,4585.128418,3960.512939,3848.718018,4270.256348,4022.051270,4246.153809,4108.205078,4082.564209,4017.948730,430.000000,4.000000,,,,0.000000,2.000000,4.000000,4.000000,4.000000,4.000000,4.000000,4.000000,4.000000,4.000000,4.000000,2.000000,4.000000,4.000000,1.000000,41.666668
1601229882.889875,68.000000,0.000000,3913.846191,4647.179688,4152.820313,4258.974121,3998.461426,4583.077148,3962.564209,3846.153809,4267.692383,4028.205078,4248.717773,4112.820313,4087.179443,4015.384521,457.000000,4.000000,,,,0.000000,2.000000,4.000000,4.000000,4.000000,4.000000,4.000000,4.000000,4.000000,4.000000,4.000000,2.000000,4.000000,4.000000,1.000000,41.666668
1601229882.897708,69.000000,0.000000,3910.256348,4649.743652,4152.820313,4261.025879,3983.076904,4582.563965,3962.051270,3847.179443,4271.794922,4029.230713,4246.153809,4112.307617,4089.743652,4023.076904,431.000000,4.000000,,,,0.000000,2.000000,4.000000,4.000000,4.000000,4.000000,4.000000,4.000000,4.000000,4.000000,4.000000,2.000000,4.000000,4.000000,1.000000,41.666668
1601229882.905641,70.000000,0.000000,3897.948730,4643.077148,4150.769043,4256.410156,3972.307617,4580.512695,3962.051270,3851.794922,4267.692383,4013.333252,4239.487305,4105.641113,4076.923096,4035.897461,440.000000,4.000000,,,,0.000000,2.000000,4.000000,4.000000,4.000000,4.000000,4.000000,4.000000,4.000000,4.000000,4.000000,2.000000,4.000000,4.000000,1.000000,41.666668
1601229882.913474,71.000000,0.000000,3891.281982,4626.666504,4148.205078,4249.230957,3976.923096,4581.025879,3964.615479,3851.794922,4263.589844,4006.153809,4233.846191,4103.077148,4061.538574,4034.358887,348.000000,4.000000,,,,0.000000,2.000000,4.000000,4.000000,4.000000,4.000000,4.000000,4.000000,4.000000,4.000000,4.000000,2.000000,4.000000,4.000000,1.000000,41.666668
1601229882.921407,72.000000,0.000000,3896.923096,4632.307617,4153.333496,4251.282227,3989.230713,4587.179688,3969.230713,3854.358887,4270.769043,4023.589844,4238.974121,4105.641113,4064.615479,4027.692383,406.000000,4.000000,,,,0.000000,2.000000,4.000000,4.000000,4.000000,4.000000,4.000000,4.000000,4.000000,4.000000,4.000000,2.000000,4.000000,4.000000,1.000000,41.666668
1601229882.929241,73.000000,0.000000,3896.923096,4642.563965,4152.820313,4253.333496,3994.871826,4582.051270,3964.615479,3852.820557,4269.230957,4030.256348,4244.102539,4103.077148,4077.435791,4022.051270,405.000000,4.000000,,,,0.000000,2.000000,4.000000,4.000000,4.000000,4.000000,4.000000,4.000000,4.000000,4.000000,4.000000,2.000000,4.000000,4.000000,1.000000,41.666668
1601229882.937172,74.000000,0.000000,3891.281982,4636.410156,4143.077148,4249.230957,3986.666748,4571.282227,3953.846191,3840.000000,4257.948730,4015.897461,4241.025879,4095.384521,4080.512939,4008.718018,426.000000,4.000000,,,,0.000000,2.000000,4.000000,4.000000,4.000000,4.000000,4.000000,4.000000,4.000000,4.000000,4.000000,2.000000,4.000000,4.000000,1.000000,41.666668
1601229882.945005,75.000000,0.000000,3899.487061,4635.384766,4149.743652,4252.307617,3974.358887,4573.846191,3950.256348,3837.948730,4264.102539,4020.512939,4242.563965,4100.512695,4084.615479,4004.615479,49.000000,4.000000,,,,0.000000,2.000000,4.000000,4.000000,4.000000,4.000000,4.000000,4.000000,4.000000,4.000000,4.000000,2.000000,4.000000,4.000000,1.000000,41.666668
1601229882.952737,76.000000,0.000000,3913.333252,4646.666504,4164.615234,4259.487305,3985.128174,4587.179688,3957.948730,3857.435791,4282.051270,4041.025635,4249.743652,4118.461426,4095.384521,4014.358887,235.000000,4.000000,,,,0.000000,2.000000,4.000000,4.000000,4.000000,4.000000,4.000000,4.000000,4.000000,4.000000,4.000000,2.000000,4.000000,4.000000,1.000000,41.666668
1601229882.960569,77.000000,0.000000,3914.358887,4653.333496,4160.000000,4257.436035,3995.897461,4597.436035,3966.666748,3861.025635,4281.538574,4042.564209,4251.282227,4122.563965,4089.743652,4015.384521,352.000000,4.000000,,,,0.000000,2.000000,4.000000,4.000000,4.000000,4.000000,4.000000,4.000000,4.000000,4.000000,4.000000,2.000000,4.000000,4.000000,1.000000,41.666668
1601229882.968300,78.000000,0.000000,3909.230713,4650.256348,4157.436035,4256.410156,3991.281982,4592.307617,3964.102539,3844.102539,4273.846191,4035.384521,4247.692383,4113.333496,4079.487061,4009.743652,426.000000,4.000000,,,,0.000000,2.000000,4.000000,4.000000,4.000000,4.000000,4.000000,4.000000,4.000000,4.000000,4.000000,2.000000,4.000000,4.000000,1.000000,41.666668
1601229882.976131,79.000000,0.000000,3913.333252,4652.307617,4166.666504,4262.563965,3997.948730,4581.538574,3962.051270,3842.051270,4282.051270,4043.589844,4246.153809,4115.897461,4089.230713,4013.333252,49.000000,4.000000,,,,0.000000,2.000000,4.000000,4.000000,4.000000,4.000000,4.000000,4.000000,4.000000,4.000000,4.000000,2.000000,4.000000,4.000000,1.000000,41.666668
1601229882.983862,80.000000,0.000000,3916.923096,4656.922852,4163.077148,4263.589844,4001.025635,4584.102539,3966.666748,3852.820557,4284.102539,4049.230713,4250.769043,4123.077148,4094.358887,4015.897461,235.000000,4.000000,,,,0.000000,2.000000,4.000000,4.000000,4.000000,4.000000,4.000000,4.000000,4.000000,4.000000,4.000000,2.000000,4.000000,4.000000,1.000000,41.666668
1601229882.991694,81.000000,0.000000,3908.205078,4647.179688,4151.794922,4253.333496,3988.205078,4578.461426,3956.923096,3844.102539,4261.538574,4032.307617,4247.179688,4109.743652,4076.923096,4006.153809,352.000000,4.000000,,,,0.000000,2.000000,4.000000,4.000000,4.000000,4.000000,4.000000,4.000000,4.000000,4.000000,4.000000,2.000000,4.000000,4.000000,1.000000,41.666668
1601229882.999424,82.000000,0.000000,3898.974365,4630.256348,4151.282227,4247.692383,3983.076904,4566.666504,3944.102539,3829.230713,4247.692383,4013.846191,4232.820313,4093.333252,4058.461426,3999.487061,426.000000,4.000000,,,,0.000000,2.000000,4.000000,4.000000,4.000000,4.000000,4.000000,4.000000,4.000000,4.000000,4.000000,2.000000,4.000000,4.000000,1.000000,41.666668
1601229883.007254,83.000000,0.000000,3898.974365,4634.871582,4153.333496,4254.358887,3983.589844,4585.128418,3955.897461,3846.666748,4268.205078,4023.076904,4231.794922,4099.487305,4057.948730,4001.538574,49.000000,4.000000,,,,0.000000,2.000000,4.000000,4.000000,4.000000,4.000000,4.000000,4.000000,4.000000,4.000000,4.000000,2.000000,4.000000,4.000000,1.000000,41.666668
1601229883.014984,84.000000,0.000000,3904.102539,4643.589844,4152.820313,4257.436035,3977.435791,4606.153809,3972.820557,3863.076904,4287.692383,4040.512939,4241.538574,4109.230957,4071.281982,4002.564209,235.000000,4.000000,,,,0.000000,2.000000,4.000000,4.000000,4.000000,4.000000,4.000000,4.000000,4.000000,4.000000,4.000000,2.000000,4.000000,4.000000,1.000000,41.666668
1601229883.022814,85.000000,0.000000,3903.076904,4636.410156,4152.820313,4251.282227,3986.153809,4593.333496,3967.179443,3850.769287,4280.512695,4037.435791,4240.512695,4105.128418,4080.000000,4000.000000,352.000000,4.000000,,,,0.000000,2.000000,4.000000,4.000000,4.000000,4.000000,4.000000,4.000000,4.000000,4.000000,4.000000,2.000000,4.000000,4.000000,1.000000,41.666668
1601229883.030543,86.000000,0.000000,3904.102539,4637.948730,4152.307617,4247.179688,3998.461426,4583.077148,3961.538574,3843.589844,4278.461426,4035.897461,4240.000000,4107.692383,4080.512939,4002.051270,426.000000,4.000000,,,,0.000000,2.000000,4.000000,4.000000,4.000000,4.000000,4.000000,4.000000,4.000000,4.000000,4.000000,2.000000,4.000000,4.000000,1.000000,41.666668
1601229883.038373,87.000000,0.000000,3908.718018,4642.563965,4154.358887,4254.358887,3989.743652,4586.666504,3964.615479,3850.256348,4288.717773,4049.230713,4248.205078,4118.974121,4084.102539,4004.615479,49.000000,4.000000,,,,0.000000,2.000000,4.000000,4.000000,4.000000,4.000000,4.000000,4.000000,4.000000,4.000000,4.000000,2.000000,4.000000,4.000000,1.000000,41.666668
1601229883.046102,88.000000,0.000000,3903.589844,4628.717773,4156.922852,4256.922852,3984.102539,4574.358887,3958.461426,3848.205078,4280.000000,4050.256348,4243.077148,4114.871582,4080.512939,4002.051270,235.000000,4.000000,,,,0.000000,2.000000,4.000000,4.000000,4.000000,4.000000,4.000000,4.000000,4.000000,4.000000,4.000000,2.000000,4.000000,4.000000,1.000000,41.666668
1601229883.053931,89.000000,0.000000,3892.820557,4621.025879,4150.256348,4248.717773,3985.641113,4569.743652,3956.923096,3842.564209,4266.153809,4041.025635,4234.871582,4103.589844,4071.281982,3996.923096,352.000000,4.000000,,,,0.000000,2.000000,4.000000,4.000000,4.000000,4.000000,4.000000,4.000000,4.000000,4.000000,4.000000,2.000000,4.000000,4.000000,1.000000,41.666668
1601229883.061659,90.000000,0.000000,3892.820557,4634.358887,4143.077148,4244.102539,3983.076904,4585.641113,3969.743652,3848.205078,4278.461426,4045.641113,4242.563965,4106.666504,4069.230713,3997.948730,426.000000,4.000000,,,,0.000000,2.000000,4.000000,4.000000,4.000000,4.000000,4.000000,4.000000,4.000000,4.000000,4.000000,2.000000,4.000000,4.000000,1.000000,41.666668
1601229883.069488,91.000000,0.000000,3904.615479,4644.615234,4148.717773,4248.205078,3991.281982,4589.743652,3978.974365,3851.281982,4289.230957,4057.948730,4250.769043,4117.948730,4075.897461,4003.076904,49.000000,4.000000,,,,0.000000,2.000000,4.000000,4.000000,4.000000,4.000000,4.000000,4.000000,4.000000,4.000000,4.000000,2.000000,4.000000,4.000000,1.000000,41.666668
1601229883.077216,92.000000,0.000000,3912.820557,4636.922852,4158.461426,4251.794922,4000.000000,4584.615234,3973.846191,3849.230713,4283.077148,4064.615479,4250.256348,4122.051270,4091.794922,4006.153809,235.000000,4.000000,,,,0.000000,2.000000,4.000000,4.000000,4.000000,4.000000,4.000000,4.000000,4.000000,4.000000,4.000000,2.000000,4.000000,4.000000,1.000000,41.666668
1601229883.085149,93.000000,0.000000,3907.179443,4631.282227,4153.846191,4254.871582,3989.230713,4590.256348,3965.128174,3850.256348,4284.102539,4062.051270,4247.179688,4115.897461,4097.436035,4004.615479,352.000000,4.000000,,,,0.000000,2.000000,4.000000,4.000000,4.000000,4.000000,4.000000,4.000000,4.000000,4.000000,4.000000,2.000000,4.000000,4.000000,1.000000,41.666668
1601229883.092982,94.000000,0.000000,3896.410156,4639.487305,4145.128418,4258.461426,3981.025635,4596.922852,3964.615479,3853.846191,4292.307617,4057.435791,4245.641113,4107.179688,4086.666748,4002.051270,426.000000,4.000000,,,,0.000000,2.000000,4.000000,4.000000,4.000000,4.000000,4.000000,4.000000,4.000000,4.000000,4.000000,2.000000,4.000000,4.000000,1.000000,41.666668
1601229883.100914,95.000000,0.000000,3897.948730,4642.051270,4149.743652,4253.846191,3999.487061,4592.307617,3967.692383,3852.820557,4284.615234,4055.897461,4245.641113,4106.153809,4082.051270,4000.000000,49.000000,4.000000,,,,0.000000,2.000000,4.000000,4.000000,4.000000,4.000000,4.000000,4.000000,4.000000,4.000000,4.000000,2.000000,4.000000,4.000000,1.000000,41.666668
1601229883.108747,96.000000,0.000000,3906.666748,4640.512695,4156.922852,4256.410156,4009.743652,4585.641113,3967.179443,3845.641113,4271.794922,4056.410156,4247.179688,4111.794922,4080.000000,4001.538574,235.000000,4.000000,,,,0.000000,2.000000,4.000000,4.000000,4.000000,4.000000,4.000000,4.000000,4.000000,4.000000,4.000000,2.000000,4.000000,4.000000,1.000000,41.666668
1601229883.116679,97.000000,0.000000,3906.153809,4642.563965,4154.358887,4259.487305,3992.307617,4584.102539,3961.538574,3841.025635,4271.794922,4052.307617,4241.025879,4110.769043,4065.128174,4001.538574,352.000000,4.000000,,,,0.000000,2.000000,4.000000,4.000000,4.000000,4.000000,4.000000,4.000000,4.000000,4.000000,4.000000,2.000000,4.000000,4.000000,1.000000,41.666668
1601229883.124512,98.000000,0.000000,3897.948730,4633.846191,4148.205078,4248.205078,3978.461426,4574.358887,3958.974365,3841.538574,4267.179688,4041.025635,4229.743652,4108.205078,4060.000000,3996.410156,426.000000,4.000000,,,,0.000000,2.000000,4.000000,4.000000,4.000000,4.000000,4.000000,4.000000,4.000000,4.000000,4.000000,2.000000,4.000000,4.000000,1.000000,41.666668
1601229883.132443,99.000000,0.000000,3897.948730,4624.615234,4147.692383,4243.077148,3985.641113,4569.230957,3964.102539,3843.589844,4266.153809,4040.000000,4228.717773,4113.846191,4070.256348,3994.871826,49.000000,4.000000,,,,0.000000,2.000000,4.000000,4.000000,4.000000,4.000000,4.000000,4.000000,4.000000,4.000000,4.000000,2.000000,4.000000,4.000000,1.000000,41.666668
1601229883.140275,100.000000,0.000000,3908.205078,4642.563965,4153.846191,4259.487305,3997.435791,4587.692383,3975.384521,3855.384521,4289.743652,4064.102539,4240.512695,4123.589844,4082.051270,3998.974365,235.000000,4.000000,,,,0.000000,2.000000,4.000000,4.000000,4.000000,4.000000,4.000000,4.000000,4.000000,4.000000,4.000000,2.000000,4.000000,4.000000,1.000000,41.666668
1601229883.148006,101.000000,0.000000,3912.820557,4653.846191,4158.974121,4267.692383,3996.923096,4603.077148,3986.666748,3868.718018,4309.230957,4083.076904,4251.794922,4131.282227,4085.641113,4003.589844,352.000000,4.000000,,,,0.000000,2.000000,4.000000,4.000000,4.000000,4.000000,4.000000,4.000000,4.000000,4.000000,4.000000,2.000000,4.000000,4.000000,1.000000,41.666668
1601229883.155838,102.000000,0.000000,3907.179443,4633.333496,4157.948730,4248.717773,3990.769287,4593.846191,3983.589844,3868.718018,4305.128418,4076.923096,4250.256348,4133.846191,4080.000000,4005.128174,426.000000,4.000000,,,,0.000000,2.000000,4.000000,4.000000,4.000000,4.000000,4.000000,4.000000,4.000000,4.000000,4.000000,2.000000,4.000000,4.000000,1.000000,41.666668
1601229883.163569,103.000000,0.000000,3911.281982,4625.641113,4157.436035,4240.512695,3984.615479,4578.461426,3975.897461,3856.410156,4299.487305,4071.794922,4245.641113,4136.410156,4086.666748,4005.128174,49.000000,4.000000,,,,0.000000,2.000000,4.000000,4.000000,4.000000,4.000000,4.000000,4.000000,4.000000,4.000000,4.000000,2.000000,4.000000,4.000000,1.000000,41.666668
1601229883.171399,104.000000,0.000000,3921.025635,4641.538574,4164.102539,4259.487305,3980.512939,4577.948730,3982.051270,3852.307617,4298.461426,4075.384521,4251.282227,4135.897461,4101.025879,4006.666748,235.000000,4.000000,,,,0.000000,2.000000,4.000000,4.000000,4.000000,4.000000,4.000000,4.000000,4.000000,4.000000,4.000000,2.000000,4.000000,4.000000,1.000000,41.666668
1601229883.179129,105.000000,0.000000,3916.410156,4645.128418,4169.743652,4273.846191,3980.512939,4586.666504,3985.128174,3854.358887,4291.794922,4072.307617,4255.384766,4127.692383,4097.436035,4011.794922,352.000000,4.000000,,,,0.000000,2.000000,4.000000,4.000000,4.000000,4.000000,4.000000,4.000000,4.000000,4.000000,4.000000,2.000000,4.000000,4.000000,1.000000,41.666668
1601229883.186960,106.000000,0.000000,3911.281982,4639.487305,4167.692383,4269.230957,3988.205078,4592.820313,3973.333252,3850.256348,4287.692383,4065.128174,4248.717773,4121.538574,4087.179443,4012.820557,426.000000,4.000000,,,,0.000000,2.000000,4.000000,4.000000,4.000000,4.000000,4.000000,4.000000,4.000000,4.000000,4.000000,2.000000,4.000000,4.000000,1.000000,41.666668
1601229883.194690,107.000000,0.000000,3911.794922,4640.000000,4160.000000,4261.538574,3997.435791,4594.871582,3967.692383,3847.692383,4289.230957,4063.076904,4247.692383,4124.615234,4084.102539,4008.205078,49.000000,4.000000,,,,0.000000,2.000000,4.000000,4.000000,4.000000,4.000000,4.000000,4.000000,4.000000,4.000000,4.000000,2.000000,4.000000,4.000000,1.000000,41.666668
1601229883.202519,108.000000,0.000000,3908.205078,4635.384766,4153.846191,4260.512695,3993.846191,4588.717773,3968.205078,3846.666748,4282.563965,4057.948730,4249.230957,4121.025879,4071.794922,4004.615479,235.000000,4.000000,,,,0.000000,2.000000,4.000000,4.000000,4.000000,4.000000,4.000000,4.000000,4.000000,4.000000,4.000000,2.000000,4.000000,4.000000,1.000000,41.666668
1601229883.210249,109.000000,0.000000,3904.102539,4631.282227,4151.282227,4264.615234,3989.743652,4581.025879,3962.564209,3845.128174,4273.846191,4044.615479,4237.436035,4110.769043,4061.025635,4007.179443,352.000000,4.000000,,,,0.000000,2.000000,4.000000,4.000000,4.000000,4.000000,4.000000,4.000000,4.000000,4.000000,4.000000,2.000000,4.000000,4.000000,1.000000,41.666668
1601229883.218078,110.000000,0.000000,3909.743652,4641.025879,4152.820313,4275.384766,3995.384521,4580.000000,3965.641113,3850.769287,4279.487305,4041.025635,4231.282227,4114.871582,4069.230713,4011.794922,426.000000,4.000000,,,,0.000000,2.000000,4.000000,4.000000,4.000000,4.000000,4.000000,4.000000,4.000000,4.000000,4.000000,2.000000,4.000000,4.000000,1.000000,41.666668
1601229883.225807,111.000000,0.000000,3913.333252,4651.794922,4154.871582,4276.922852,4002.051270,4584.615234,3976.923096,3858.461426,4290.256348,4052.307617,4241.025879,4123.077148,4078.974365,4012.307617,49.000000,4.000000,,,,0.000000,2.000000,4.000000,4.000000,4.000000,4.000000,4.000000,4.000000,4.000000,4.000000,4.000000,2.000000,4.000000,4.000000,1.000000,41.666668
1601229883.233741,112.000000,0.000000,3911.281982,4651.794922,4153.333496,4270.256348,3998.461426,4585.128418,3975.384521,3857.948730,4293.333496,4060.000000,4247.692383,4120.512695,4082.051270,4010.256348,235.000000,4.000000,,,,0.000000,2.000000,4.000000,4.000000,4.000000,4.000000,4.000000,4.000000,4.000000,4.000000,4.000000,2.000000,4.000000,4.000000,1.000000,41.666668
1601229883.241575,113.000000,0.000000,3910.769287,4644.102539,4153.333496,4267.692383,3992.307617,4596.922852,3982.051270,3858.974365,4298.461426,4058.974365,4245.641113,4121.538574,4079.487061,4010.769287,352.000000,4.000000,,,,0.000000,2.000000,4.000000,4.000000,4.000000,4.000000,4.000000,4.000000,4.000000,4.000000,4.000000,2.000000,4.000000,4.000000,1.000000,41.666668
1601229883.249508,114.000000,0.000000,3911.794922,4642.563965,4157.948730,4271.282227,3994.358887,4611.794922,3998.974365,3868.718018,4310.256348,4067.692383,4249.230957,4134.871582,4081.025635,4013.846191,426.000000,4.000000,,,,0.000000,2.000000,4.000000,4.000000,4.000000,4.000000,4.000000,4.000000,4.000000,4.000000,4.000000,2.000000,4.000000,4.000000,1.000000,41.666668
1601229883.257342,115.000000,0.000000,3912.307617,4651.282227,4158.461426,4275.384766,3989.743652,4606.666504,3995.384521,3868.718018,4307.692383,4071.281982,4253.333496,4140.512695,4092.307617,4016.923096,49.000000,4.000000,,,,0.000000,2.000000,4.000000,4.000000,4.000000,4.000000,4.000000,4.000000,4.000000,4.000000,4.000000,2.000000,4.000000,4.000000,1.000000,41.666668
1601229883.265276,116.000000,0.000000,3910.769287,4644.615234,4154.358887,4266.666504,3974.871826,4591.794922,3980.000000,3853.846191,4295.384766,4056.410156,4248.205078,4132.820313,4091.794922,4016.923096,235.000000,4.000000,,,,0.000000,2.000000,4.000000,4.000000,4.000000,4.000000,4.000000,4.000000,4.000000,4.000000,4.000000,2.000000,4.000000,4.000000,1.000000,41.666668
1601229883.273109,117.000000,0.000000,3908.205078,4626.666504,4153.846191,4252.820313,3980.512939,4586.153809,3972.820557,3846.153809,4297.436035,4056.410156,4245.641113,4129.743652,4080.512939,4016.410156,352.000000,4.000000,,,,0.000000,2.000000,4.000000,4.000000,4.000000,4.000000,4.000000,4.000000,4.000000,4.000000,4.000000,2.000000,4.000000,4.000000,1.000000,41.666668
1601229883.281041,118.000000,0.000000,3900.512939,4621.538574,4152.307617,4245.128418,3990.769287,4579.487305,3965.128174,3849.743652,4298.974121,4067.692383,4248.717773,4127.692383,4078.461426,4017.435791,426.000000,4.000000,,,,0.000000,2.000000,4.000000,4.000000,4.000000,4.000000,4.000000,4.000000,4.000000,4.000000,4.000000,2.000000,4.000000,4.000000,1.000000,41.666668
1601229883.288874,119.000000,0.000000,3892.307617,4626.153809,4149.743652,4244.615234,3976.410156,4575.384766,3960.512939,3848.718018,4285.641113,4057.948730,4248.205078,4121.025879,4080.512939,4011.794922,49.000000,4.000000,,,,0.000000,2.000000,4.000000,4.000000,4.000000,4.000000,4.000000,4.000000,4.000000,4.000000,4.000000,2.000000,4.000000,4.000000,1.000000,41.666668
1601229883.296806,120.000000,0.000000,3899.487061,4628.717773,4151.794922,4248.717773,3968.205078,4586.666504,3969.743652,3843.589844,4282.563965,4050.256348,4245.128418,4118.461426,4077.948730,4008.205078,235.000000,4.000000,,,,0.000000,2.000000,4.000000,4.000000,4.000000,4.000000,4.000000,4.000000,4.000000,4.000000,4.000000,2.000000,4.000000,4.000000,1.000000,41.666668
1601229883.304638,121.000000,0.000000,3905.128174,4629.743652,4154.358887,4257.436035,3980.000000,4591.282227,3974.358887,3848.718018,4293.846191,4063.076904,4246.153809,4123.077148,4079.487061,4011.281982,352.000000,4.000000,,,,0.000000,2.000000,4.000000,4.000000,4.000000,4.000000,4.000000,4.000000,4.000000,4.000000,4.000000,2.000000,4.000000,4.000000,1.000000,41.666668
1601229883.312570,122.000000,0.000000,3900.512939,4629.230957,4151.794922,4265.641113,3986.666748,4577.948730,3965.641113,3854.358887,4292.307617,4068.205078,4243.589844,4124.102539,4084.615479,4010.256348,426.000000,4.000000,,,,0.000000,2.000000,4.000000,4.000000,4.000000,4.000000,4.000000,4.000000,4.000000,4.000000,4.000000,2.000000,4.000000,4.000000,1.000000,41.666668
1601229883.320402,123.000000,0.000000,3897.948730,4634.358887,4151.794922,4266.153809,3984.102539,4575.384766,3963.589844,3848.718018,4283.589844,4061.538574,4241.538574,4121.538574,4083.589844,4006.666748,49.000000,4.000000,,,,0.000000,2.000000,4.000000,4.000000,4.000000,4.000000,4.000000,4.000000,4.000000,4.000000,4.000000,2.000000,4.000000,4.000000,1.000000,41.666668
1601229883.328334,124.000000,0.000000,3903.589844,4640.512695,4155.897461,4262.563965,3985.641113,4586.666504,3967.179443,3845.641113,4286.153809,4058.461426,4242.051270,4120.512695,4079.487061,4008.205078,235.000000,4.000000,,,,0.000000,2.000000,4.000000,4.000000,4.000000,4.000000,4.000000,4.000000,4.000000,4.000000,4.000000,2.000000,4.000000,4.000000,1.000000,41.666668
1601229883.336165,125.000000,0.000000,3904.102539,4636.410156,4155.897461,4260.000000,3990.769287,4585.128418,3968.205078,3847.692383,4287.692383,4054.358887,4241.025879,4119.487305,4065.128174,4009.743652,352.000000,4.000000,,,,0.000000,2.000000,4.000000,4.000000,4.000000,4.000000,4.000000,4.000000,4.000000,4.000000,4.000000,2.000000,4.000000,4.000000,1.000000,41.666668
1601229883.343896,126.000000,0.000000,3903.076904,4634.871582,4152.820313,4264.102539,3991.281982,4577.948730,3967.179443,3847.179443,4284.615234,4054.358887,4241.025879,4121.025879,4060.000000,4009.743652,426.000000,4.000000,,,,0.000000,2.000000,4.000000,4.000000,4.000000,4.000000,4.000000,4.000000,4.000000,4.000000,4.000000,2.000000,4.000000,4.000000,1.000000,41.666668
1601229883.351727,127.000000,0.000000,3906.153809,4643.077148,4153.846191,4265.641113,3989.743652,4588.717773,3963.589844,3849.230713,4287.179688,4063.076904,4247.179688,4122.051270,4080.000000,4020.512939,49.000000,4.000000,,,,0.000000,2.000000,4.000000,4.000000,4.000000,4.000000,4.000000,4.000000,4.000000,4.000000,4.000000,2.000000,4.000000,4.000000,1.000000,41.666668
1601229883.359458,128.000000,0.000000,3903.589844,4645.128418,4156.410156,4260.512695,3988.205078,4598.974121,3959.487061,3847.179443,4290.256348,4062.051270,4244.102539,4117.436035,4091.281982,4036.410156,235.000000,4.000000,,,,0.000000,2.000000,4.000000,4.000000,4.000000,4.000000,4.000000,4.000000,4.000000,4.000000,4.000000,2.000000,4.000000,4.000000,1.000000,41.666668
1601229883.367288,0.000000,0.000000,3897.435791,4644.102539,4154.871582,4259.487305,3980.000000,4586.666504,3960.512939,3841.025635,4283.077148,4050.769287,4236.922852,4113.333496,4072.820557,4042.051270,383.000000,4.000000,,,,0.000000,2.000000,4.000000,4.000000,4.000000,4.000000,4.000000,4.000000,4.000000,4.000000,4.000000,2.000000,4.000000,4.000000,1.000000,41.666668
1601229883.375018,1.000000,0.000000,3894.871826,4645.128418,4153.333496,4260.000000,3980.000000,4572.307617,3964.615479,3844.615479,4278.461426,4049.230713,4237.948730,4118.974121,4065.641113,4037.435791,433.000000,4.000000,,,,0.000000,2.000000,4.000000,4.000000,4.000000,4.000000,4.000000,4.000000,4.000000,4.000000,4.000000,2.000000,4.000000,4.000000,1.000000,41.666668
1601229883.382848,2.000000,0.000000,3897.435791,4636.922852,4155.897461,4255.897461,3990.256348,4578.974121,3967.692383,3852.307617,4285.641113,4053.333252,4238.461426,4122.051270,4078.461426,4033.333252,383.000000,4.000000,,,,0.000000,2.000000,4.000000,4.000000,4.000000,4.000000,4.000000,4.000000,4.000000,4.000000,4.000000,2.000000,4.000000,4.000000,1.000000,41.666668
1601229883.390578,3.000000,0.000000,3897.948730,4624.102539,4156.922852,4252.820313,3989.743652,4581.025879,3966.153809,3845.128174,4285.128418,4052.307617,4237.436035,4110.769043,4073.333252,4025.641113,430.000000,4.000000,,,,0.000000,2.000000,4.000000,4.000000,4.000000,4.000000,4.000000,4.000000,4.000000,4.000000,4.000000,2.000000,4.000000,4.000000,1.000000,41.666668
1601229883.398407,4.000000,0.000000,3894.358887,4628.205078,4155.384766,4257.436035,3990.256348,4578.974121,3969.230713,3843.589844,4284.102539,4058.974365,4237.436035,4105.641113,4061.025635,4014.871826,457.000000,4.000000,,,,0.000000,2.000000,4.000000,4.000000,4.000000,4.000000,4.000000,4.000000,4.000000,4.000000,4.000000,2.000000,4.000000,4.000000,1.000000,41.666668
1601229883.406136,5.000000,0.000000,3894.871826,4642.051270,4154.871582,4261.025879,3994.358887,4593.846191,3978.974365,3856.923096,4297.948730,4069.743652,4242.051270,4110.769043,4070.769287,4008.718018,431.000000,4.000000,,,,0.000000,2.000000,4.000000,4.000000,4.000000,4.000000,4.000000,4.000000,4.000000,4.000000,4.000000,2.000000,4.000000,4.000000,1.000000,41.666668
1601229883.413965,6.000000,0.000000,3899.487061,4634.358887,4155.897461,4256.922852,3981.538574,4602.051270,3978.461426,3860.512939,4300.512695,4068.205078,4248.205078,4112.820313,4089.743652,4008.718018,440.000000,4.000000,,,,0.000000,2.000000,4.000000,4.000000,4.000000,4.000000,4.000000,4.000000,4.000000,4.000000,4.000000,2.000000,4.000000,4.000000,1.000000,41.666668
