title:your record name, start timestamp:1602279038.535470, stop timestamp:1602279068.783835, headset type:EPOC, headset serial:79017558, headset firmware:1e00, subject name:alzaabi.su, channels:38, sampling rate:128, samples:3869      , version:2.0
Timestamp,EEG.Counter,EEG.Interpolated,EEG.AF3,EEG.F7,EEG.F3,EEG.FC5,EEG.T7,EEG.P7,EEG.O1,EEG.O2,EEG.P8,EEG.T8,EEG.FC6,EEG.F4,EEG.F8,EEG.AF4,EEG.RawCq,EEG.Battery,MarkerIndex,MarkerType,MarkerValueInt,EEG.MarkerHardware,CQ.AF3,CQ.F7,CQ.F3,CQ.FC5,CQ.T7,CQ.P7,CQ.O1,CQ.O2,CQ.P8,CQ.T8,CQ.FC6,CQ.F4,CQ.F8,CQ.AF4,CQ.Overall
1602279038.535470,116.000000,0.000000,3889.230713,4565.641113,4157.948730,4236.922852,3939.487061,4625.128418,3985.128174,3902.564209,4265.641113,3896.923096,4182.051270,4135.897461,4054.871826,3947.179443,426.000000,4.000000,,,,0.000000,4.000000,4.000000,0.000000,4.000000,4.000000,4.000000,4.000000,4.000000,4.000000,1.000000,4.000000,4.000000,4.000000,2.000000,25.000000
1602279038.543197,117.000000,0.000000,3875.897461,4567.692383,4157.948730,4228.205078,3925.641113,4608.717773,3969.743652,3880.000000,4259.487305,3894.358887,4169.230957,4125.128418,4047.179443,3943.076904,356.000000,4.000000,,,,0.000000,4.000000,4.000000,0.000000,4.000000,4.000000,4.000000,4.000000,4.000000,4.000000,1.000000,4.000000,4.000000,4.000000,2.000000,25.000000
1602279038.551024,118.000000,0.000000,3874.871826,4596.922852,4158.974121,4227.692383,3926.153809,4593.846191,3957.948730,3877.435791,4257.948730,3894.358887,4176.922852,4129.743652,4057.948730,3944.102539,448.000000,4.000000,,,,0.000000,4.000000,4.000000,0.000000,4.000000,4.000000,4.000000,4.000000,4.000000,4.000000,1.000000,4.000000,4.000000,4.000000,2.000000,25.000000
1602279038.558751,119.000000,0.000000,3887.692383,4606.666504,4160.512695,4234.358887,3940.512939,4608.717773,3967.692383,3885.641113,4260.512695,3897.948730,4194.871582,4143.589844,4076.923096,3951.794922,238.000000,4.000000,,,,0.000000,4.000000,4.000000,0.000000,4.000000,4.000000,4.000000,4.000000,4.000000,4.000000,1.000000,4.000000,4.000000,4.000000,2.000000,25.000000
1602279038.566578,120.000000,0.000000,3891.281982,4596.922852,4158.974121,4231.794922,3949.230713,4618.461426,3976.410156,3881.025635,4257.436035,3897.948730,4190.256348,4143.589844,4074.358887,3955.897461,426.000000,4.000000,,,,0.000000,4.000000,4.000000,0.000000,4.000000,4.000000,4.000000,4.000000,4.000000,4.000000,1.000000,4.000000,4.000000,4.000000,2.000000,25.000000
1602279038.574304,121.000000,0.000000,3888.718018,4593.333496,4154.871582,4238.461426,3940.512939,4598.974121,3960.000000,3880.000000,4252.820313,3896.410156,4186.153809,4142.051270,4066.666748,3953.846191,356.000000,4.000000,,,,0.000000,4.000000,4.000000,0.000000,4.000000,4.000000,4.000000,4.000000,4.000000,4.000000,1.000000,4.000000,4.000000,4.000000,2.000000,25.000000
1602279038.582130,122.000000,0.000000,3895.384521,4586.153809,4157.948730,4249.743652,3933.333252,4595.384766,3953.333252,3890.769287,4261.025879,3897.948730,4199.487305,4151.794922,4076.410156,3957.435791,448.000000,4.000000,,,,0.000000,4.000000,4.000000,0.000000,4.000000,4.000000,4.000000,4.000000,4.000000,4.000000,1.000000,4.000000,4.000000,4.000000,2.000000,25.000000
1602279038.589857,123.000000,0.000000,3896.410156,4580.512695,4158.461426,4236.922852,3937.435791,4613.333496,3968.205078,3895.897461,4269.743652,3898.461426,4200.512695,4149.230957,4077.435791,3957.435791,238.000000,4.000000,,,,0.000000,4.000000,4.000000,0.000000,4.000000,4.000000,4.000000,4.000000,4.000000,4.000000,1.000000,4.000000,4.000000,4.000000,2.000000,25.000000
1602279038.597683,124.000000,0.000000,3884.615479,4593.333496,4158.974121,4224.102539,3936.923096,4612.820313,3967.179443,3887.692383,4255.897461,3897.948730,4181.538574,4131.794922,4057.435791,3946.666748,426.000000,4.000000,,,,0.000000,4.000000,4.000000,0.000000,4.000000,4.000000,4.000000,4.000000,4.000000,4.000000,1.000000,4.000000,4.000000,4.000000,2.000000,25.000000
1602279038.605409,125.000000,0.000000,3885.128174,4607.179688,4162.051270,4240.512695,3941.538574,4609.230957,3958.461426,3878.461426,4247.692383,3897.948730,4173.333496,4128.717773,4053.333252,3946.153809,356.000000,4.000000,,,,0.000000,4.000000,4.000000,0.000000,4.000000,4.000000,4.000000,4.000000,4.000000,4.000000,1.000000,4.000000,4.000000,4.000000,2.000000,25.000000
1602279038.613338,126.000000,0.000000,3894.358887,4600.000000,4159.487305,4246.153809,3954.871826,4611.794922,3964.102539,3880.000000,4256.922852,3895.897461,4183.077148,4134.871582,4065.641113,3952.307617,448.000000,4.000000,,,,0.000000,4.000000,4.000000,0.000000,4.000000,4.000000,4.000000,4.000000,4.000000,4.000000,1.000000,4.000000,4.000000,4.000000,2.000000,25.000000
1602279038.621167,127.000000,0.000000,3887.179443,4587.179688,4156.922852,4231.794922,3948.205078,4597.948730,3963.076904,3882.564209,4251.794922,3891.794922,4185.641113,4130.769043,4065.641113,3945.641113,238.000000,4.000000,,,,0.000000,4.000000,4.000000,0.000000,4.000000,4.000000,4.000000,4.000000,4.000000,4.000000,1.000000,4.000000,4.000000,4.000000,2.000000,25.000000
1602279038.629095,128.000000,0.000000,3878.461426,4594.871582,4161.025879,4236.922852,3930.769287,4587.179688,3951.794922,3869.743652,4237.948730,3889.743652,4182.051270,4129.743652,4062.564209,3940.512939,426.000000,4.000000,,,,0.000000,4.000000,4.000000,0.000000,4.000000,4.000000,4.000000,4.000000,4.000000,4.000000,1.000000,4.000000,4.000000,4.000000,2.000000,25.000000
1602279038.636924,0.000000,0.000000,3883.076904,4608.205078,4162.051270,4250.769043,3933.846191,4607.179688,3955.897461,3866.666748,4247.692383,3893.846191,4182.563965,4134.871582,4067.692383,3946.153809,0.000000,4.000000,,,,0.000000,4.000000,4.000000,0.000000,4.000000,4.000000,4.000000,4.000000,4.000000,4.000000,1.000000,4.000000,4.000000,4.000000,2.000000,25.000000
1602279038.644852,1.000000,0.000000,3889.743652,4603.077148,4158.461426,4249.230957,3949.230713,4621.025879,3969.230713,3884.102539,4263.589844,3896.923096,4184.102539,4135.384766,4068.205078,3947.692383,419.000000,4.000000,,,,0.000000,4.000000,4.000000,0.000000,4.000000,4.000000,4.000000,4.000000,4.000000,4.000000,1.000000,4.000000,4.000000,4.000000,2.000000,25.000000
1602279038.652681,2.000000,0.000000,3893.846191,4597.948730,4161.025879,4249.230957,3948.205078,4608.205078,3969.230713,3887.692383,4258.461426,3896.923096,4186.666504,4137.948730,4060.512939,3949.743652,390.000000,4.000000,,,,0.000000,4.000000,4.000000,0.000000,4.000000,4.000000,4.000000,4.000000,4.000000,4.000000,1.000000,4.000000,4.000000,4.000000,2.000000,25.000000
1602279038.660609,3.000000,0.000000,3892.820557,4602.563965,4160.512695,4250.769043,3942.051270,4593.333496,3954.358887,3875.384521,4250.256348,3896.923096,4183.077148,4137.436035,4053.333252,3948.205078,443.000000,4.000000,,,,0.000000,4.000000,4.000000,0.000000,4.000000,4.000000,4.000000,4.000000,4.000000,4.000000,1.000000,4.000000,4.000000,4.000000,2.000000,25.000000
1602279038.668437,4.000000,0.000000,3888.718018,4602.051270,4158.974121,4238.974121,3943.589844,4597.948730,3950.256348,3868.718018,4252.307617,3897.948730,4178.461426,4130.769043,4057.435791,3944.102539,479.000000,4.000000,,,,0.000000,4.000000,4.000000,0.000000,4.000000,4.000000,4.000000,4.000000,4.000000,4.000000,1.000000,4.000000,4.000000,4.000000,2.000000,25.000000
1602279038.676364,5.000000,0.000000,3889.743652,4602.051270,4158.974121,4235.897461,3940.512939,4613.333496,3969.230713,3874.871826,4259.487305,3899.487061,4182.051270,4134.871582,4072.820557,3947.179443,411.000000,4.000000,,,,0.000000,4.000000,4.000000,0.000000,4.000000,4.000000,4.000000,4.000000,4.000000,4.000000,1.000000,4.000000,4.000000,4.000000,2.000000,25.000000
1602279038.684192,6.000000,0.000000,3892.820557,4603.077148,4158.974121,4247.692383,3942.051270,4610.256348,3972.820557,3879.487061,4258.974121,3897.948730,4186.666504,4145.128418,4074.358887,3952.820557,470.000000,4.000000,,,,0.000000,4.000000,4.000000,0.000000,4.000000,4.000000,4.000000,4.000000,4.000000,4.000000,1.000000,4.000000,4.000000,4.000000,2.000000,25.000000
1602279038.692119,7.000000,0.000000,3891.794922,4594.871582,4154.871582,4250.769043,3957.435791,4600.512695,3959.487061,3879.487061,4256.922852,3896.410156,4187.692383,4144.102539,4060.000000,3950.256348,393.000000,4.000000,,,,0.000000,4.000000,4.000000,0.000000,4.000000,4.000000,4.000000,4.000000,4.000000,4.000000,1.000000,4.000000,4.000000,4.000000,2.000000,25.000000
1602279038.699947,8.000000,0.000000,3889.230713,4595.897461,4157.948730,4245.128418,3955.384521,4602.563965,3962.051270,3881.538574,4264.102539,3898.974365,4181.025879,4134.871582,4053.333252,3946.666748,418.000000,4.000000,,,,0.000000,4.000000,4.000000,0.000000,4.000000,4.000000,4.000000,4.000000,4.000000,4.000000,1.000000,4.000000,4.000000,4.000000,2.000000,25.000000
1602279038.707674,9.000000,0.000000,3888.718018,4611.794922,4159.487305,4248.205078,3935.384521,4611.282227,3977.435791,3885.641113,4267.692383,3898.461426,4173.846191,4130.256348,4056.410156,3942.051270,52.000000,4.000000,,,,0.000000,4.000000,4.000000,0.000000,4.000000,4.000000,4.000000,4.000000,4.000000,4.000000,1.000000,4.000000,4.000000,4.000000,2.000000,25.000000
1602279038.715502,10.000000,0.000000,3889.230713,4615.384766,4160.000000,4247.179688,3937.435791,4609.743652,3975.384521,3878.461426,4254.358887,3895.897461,4182.051270,4131.282227,4065.641113,3941.025635,448.000000,4.000000,,,,0.000000,4.000000,4.000000,0.000000,4.000000,4.000000,4.000000,4.000000,4.000000,4.000000,1.000000,4.000000,4.000000,4.000000,2.000000,25.000000
1602279038.723229,11.000000,0.000000,3887.179443,4597.436035,4160.000000,4232.307617,3945.128174,4598.461426,3962.564209,3869.230713,4240.512695,3896.410156,4186.153809,4128.205078,4067.179443,3942.051270,239.000000,4.000000,,,,0.000000,4.000000,4.000000,0.000000,4.000000,4.000000,4.000000,4.000000,4.000000,4.000000,1.000000,4.000000,4.000000,4.000000,2.000000,25.000000
1602279038.731056,12.000000,0.000000,3885.128174,4589.230957,4158.974121,4227.692383,3935.897461,4597.436035,3961.025635,3872.307617,4244.615234,3898.461426,4172.307617,4122.563965,4052.820557,3940.000000,426.000000,4.000000,,,,0.000000,4.000000,4.000000,0.000000,4.000000,4.000000,4.000000,4.000000,4.000000,4.000000,1.000000,4.000000,4.000000,4.000000,2.000000,25.000000
1602279038.738783,13.000000,0.000000,3888.718018,4600.512695,4158.461426,4242.051270,3942.564209,4600.512695,3959.487061,3869.230713,4249.230957,3897.435791,4176.410156,4122.563965,4051.281982,3943.589844,356.000000,4.000000,,,,0.000000,4.000000,4.000000,0.000000,4.000000,4.000000,4.000000,4.000000,4.000000,4.000000,1.000000,4.000000,4.000000,4.000000,2.000000,25.000000
1602279038.746609,14.000000,0.000000,3891.281982,4600.512695,4161.538574,4244.615234,3954.871826,4602.051270,3954.871826,3861.538574,4250.256348,3896.923096,4197.436035,4132.307617,4065.128174,3953.333252,448.000000,4.000000,,,,0.000000,4.000000,4.000000,0.000000,4.000000,4.000000,4.000000,4.000000,4.000000,4.000000,1.000000,4.000000,4.000000,4.000000,2.000000,25.000000
1602279038.754336,15.000000,0.000000,3891.794922,4586.666504,4161.025879,4233.333496,3950.769287,4611.282227,3965.128174,3868.205078,4257.436035,3897.435791,4203.589844,4142.051270,4066.153809,3954.871826,239.000000,4.000000,,,,0.000000,4.000000,4.000000,0.000000,4.000000,4.000000,4.000000,4.000000,4.000000,4.000000,1.000000,4.000000,4.000000,4.000000,2.000000,25.000000
1602279038.762162,16.000000,0.000000,3889.230713,4592.820313,4156.922852,4233.846191,3944.615479,4622.563965,3976.923096,3879.487061,4261.025879,3897.435791,4197.948730,4142.051270,4061.025635,3950.256348,0.000000,4.000000,,,,0.000000,4.000000,4.000000,0.000000,4.000000,4.000000,4.000000,4.000000,4.000000,4.000000,1.000000,4.000000,4.000000,4.000000,2.000000,25.000000
1602279038.769888,17.000000,0.000000,3884.615479,4608.717773,4160.000000,4236.410156,3948.718018,4611.794922,3969.743652,3884.102539,4258.974121,3897.435791,4196.922852,4135.897461,4064.102539,3949.230713,0.000000,4.000000,,,,0.000000,4.000000,4.000000,0.000000,4.000000,4.000000,4.000000,4.000000,4.000000,4.000000,1.000000,4.000000,4.000000,4.000000,2.000000,25.000000
1602279038.777715,18.000000,0.000000,3883.076904,4594.871582,4160.000000,4230.256348,3947.179443,4595.384766,3961.538574,3880.000000,4257.436035,3896.923096,4194.358887,4132.820313,4065.128174,3948.205078,0.000000,4.000000,,,,0.000000,4.000000,4.000000,0.000000,4.000000,4.000000,4.000000,4.000000,4.000000,4.000000,1.000000,4.000000,4.000000,4.000000,2.000000,25.000000
1602279038.785440,19.000000,0.000000,3885.128174,4581.538574,4158.974121,4226.666504,3937.948730,4601.538574,3967.179443,3871.794922,4254.871582,3897.435791,4193.333496,4132.820313,4063.076904,3947.179443,0.000000,4.000000,,,,0.000000,4.000000,4.000000,0.000000,4.000000,4.000000,4.000000,4.000000,4.000000,4.000000,1.000000,4.000000,4.000000,4.000000,2.000000,25.000000
1602279038.793369,20.000000,0.000000,3889.230713,4600.512695,4160.000000,4230.256348,3937.435791,4615.384766,3972.307617,3868.718018,4253.846191,3901.538574,4196.410156,4131.282227,4070.256348,3945.641113,0.000000,4.000000,,,,0.000000,4.000000,4.000000,0.000000,4.000000,4.000000,4.000000,4.000000,4.000000,4.000000,1.000000,4.000000,4.000000,4.000000,2.000000,25.000000
1602279038.801198,21.000000,0.000000,3887.179443,4612.307617,4160.512695,4232.307617,3940.512939,4613.333496,3966.153809,3875.384521,4258.461426,3906.153809,4193.846191,4129.230957,4078.974365,3943.589844,0.000000,4.000000,,,,0.000000,4.000000,4.000000,0.000000,4.000000,4.000000,4.000000,4.000000,4.000000,4.000000,1.000000,4.000000,4.000000,4.000000,2.000000,25.000000
1602279038.809126,22.000000,0.000000,3877.948730,4598.461426,4157.436035,4231.794922,3949.230713,4600.000000,3961.538574,3885.641113,4267.692383,3907.179443,4189.743652,4127.692383,4071.281982,3941.538574,0.000000,4.000000,,,,0.000000,4.000000,4.000000,0.000000,4.000000,4.000000,4.000000,4.000000,4.000000,4.000000,1.000000,4.000000,4.000000,4.000000,2.000000,25.000000
1602279038.816955,23.000000,0.000000,3882.564209,4590.256348,4161.025879,4232.820313,3960.000000,4602.051270,3969.230713,3888.205078,4275.384766,3906.666748,4198.974121,4132.307617,4063.589844,3945.641113,0.000000,4.000000,,,,0.000000,4.000000,4.000000,0.000000,4.000000,4.000000,4.000000,4.000000,4.000000,4.000000,1.000000,4.000000,4.000000,4.000000,2.000000,25.000000
1602279038.824883,24.000000,0.000000,3892.307617,4595.897461,4162.051270,4237.436035,3950.256348,4611.794922,3972.820557,3881.025635,4275.384766,3908.205078,4206.153809,4135.897461,4071.794922,3948.718018,0.000000,4.000000,,,,0.000000,4.000000,4.000000,0.000000,4.000000,4.000000,4.000000,4.000000,4.000000,4.000000,1.000000,4.000000,4.000000,4.000000,2.000000,25.000000
1602279038.832711,25.000000,0.000000,3886.666748,4592.820313,4158.461426,4231.794922,3934.871826,4609.230957,3970.256348,3876.923096,4268.205078,3908.205078,4194.358887,4129.743652,4069.230713,3944.615479,0.000000,4.000000,,,,0.000000,4.000000,4.000000,0.000000,4.000000,4.000000,4.000000,4.000000,4.000000,4.000000,1.000000,4.000000,4.000000,4.000000,2.000000,25.000000
1602279038.840639,26.000000,0.000000,3878.974365,4585.128418,4157.436035,4221.025879,3944.615479,4609.743652,3972.820557,3884.102539,4267.179688,3907.179443,4188.205078,4127.179688,4052.820557,3945.128174,0.000000,4.000000,,,,0.000000,4.000000,4.000000,0.000000,4.000000,4.000000,4.000000,4.000000,4.000000,4.000000,1.000000,4.000000,4.000000,4.000000,2.000000,25.000000
1602279038.848467,27.000000,0.000000,3883.589844,4589.230957,4160.512695,4230.769043,3955.384521,4613.846191,3973.846191,3890.256348,4270.769043,3909.230713,4194.871582,4133.333496,4062.564209,3952.820557,0.000000,4.000000,,,,0.000000,4.000000,4.000000,0.000000,4.000000,4.000000,4.000000,4.000000,4.000000,4.000000,1.000000,4.000000,4.000000,4.000000,2.000000,25.000000
1602279038.856395,28.000000,0.000000,3885.641113,4591.794922,4160.512695,4238.461426,3943.589844,4610.256348,3967.692383,3881.025635,4258.974121,3908.718018,4193.333496,4132.307617,4073.333252,3951.794922,0.000000,4.000000,,,,0.000000,4.000000,4.000000,0.000000,4.000000,4.000000,4.000000,4.000000,4.000000,4.000000,1.000000,4.000000,4.000000,4.000000,2.000000,25.000000
1602279038.864223,29.000000,0.000000,3882.051270,4584.615234,4158.974121,4225.641113,3948.205078,4612.307617,3965.128174,3870.769287,4252.820313,3906.153809,4189.230957,4130.256348,4058.461426,3947.692383,0.000000,4.000000,,,,0.000000,4.000000,4.000000,0.000000,4.000000,4.000000,4.000000,4.000000,4.000000,4.000000,1.000000,4.000000,4.000000,4.000000,2.000000,25.000000
1602279038.872150,30.000000,0.000000,3886.666748,4586.153809,4157.948730,4234.871582,3963.589844,4619.487305,3968.718018,3883.076904,4270.769043,3909.230713,4193.333496,4137.948730,4059.487061,3951.794922,0.000000,4.000000,,,,0.000000,4.000000,4.000000,0.000000,4.000000,4.000000,4.000000,4.000000,4.000000,4.000000,1.000000,4.000000,4.000000,4.000000,2.000000,25.000000
1602279038.879978,31.000000,0.000000,3891.281982,4602.051270,4159.487305,4254.871582,3952.307617,4611.282227,3974.871826,3898.974365,4281.538574,3912.820557,4200.512695,4143.589844,4079.487061,3954.358887,0.000000,4.000000,,,,0.000000,4.000000,4.000000,0.000000,4.000000,4.000000,4.000000,4.000000,4.000000,4.000000,1.000000,4.000000,4.000000,4.000000,2.000000,25.000000
1602279038.887705,32.000000,0.000000,3884.102539,4607.179688,4160.000000,4234.358887,3943.589844,4594.871582,3967.692383,3886.666748,4264.615234,3909.743652,4197.436035,4134.871582,4072.307617,3948.718018,0.000000,4.000000,,,,0.000000,4.000000,4.000000,0.000000,4.000000,4.000000,4.000000,4.000000,4.000000,4.000000,1.000000,4.000000,4.000000,4.000000,2.000000,25.000000
1602279038.895532,33.000000,0.000000,3877.435791,4594.871582,4156.922852,4211.794922,3951.794922,4593.333496,3952.820557,3870.256348,4258.461426,3905.128174,4190.769043,4125.641113,4055.384521,3943.076904,0.000000,4.000000,,,,0.000000,4.000000,4.000000,0.000000,4.000000,4.000000,4.000000,4.000000,4.000000,4.000000,1.000000,4.000000,4.000000,4.000000,2.000000,25.000000
1602279038.903260,34.000000,0.000000,3891.281982,4588.717773,4158.974121,4235.897461,3954.871826,4613.333496,3965.128174,3887.692383,4277.436035,3908.718018,4204.102539,4137.436035,4076.923096,3951.281982,0.000000,4.000000,,,,0.000000,4.000000,4.000000,0.000000,4.000000,4.000000,4.000000,4.000000,4.000000,4.000000,1.000000,4.000000,4.000000,4.000000,2.000000,25.000000
1602279038.911087,35.000000,0.000000,3901.025635,4600.000000,4163.589844,4254.871582,3949.230713,4630.769043,3986.153809,3902.051270,4285.641113,3913.846191,4216.922852,4149.743652,4097.436035,3957.435791,0.000000,4.000000,,,,0.000000,4.000000,4.000000,0.000000,4.000000,4.000000,4.000000,4.000000,4.000000,4.000000,1.000000,4.000000,4.000000,4.000000,2.000000,25.000000
1602279038.918814,36.000000,0.000000,3888.718018,4608.205078,4162.563965,4237.436035,3949.743652,4616.410156,3976.410156,3886.153809,4273.333496,3912.307617,4201.538574,4140.000000,4079.487061,3951.281982,0.000000,4.000000,,,,0.000000,4.000000,4.000000,0.000000,4.000000,4.000000,4.000000,4.000000,4.000000,4.000000,1.000000,4.000000,4.000000,4.000000,2.000000,25.000000
1602279038.926640,37.000000,0.000000,3882.564209,4601.025879,4156.410156,4227.692383,3953.846191,4597.436035,3961.538574,3876.923096,4262.563965,3909.743652,4195.384766,4129.743652,4067.179443,3944.102539,0.000000,4.000000,,,,0.000000,4.000000,4.000000,0.000000,4.000000,4.000000,4.000000,4.000000,4.000000,4.000000,1.000000,4.000000,4.000000,4.000000,2.000000,25.000000
1602279038.934367,38.000000,0.000000,3887.179443,4595.384766,4157.948730,4234.871582,3950.256348,4603.589844,3968.718018,3883.589844,4262.563965,3911.281982,4198.461426,4130.769043,4072.307617,3944.102539,0.000000,4.000000,,,,0.000000,4.000000,4.000000,0.000000,4.000000,4.000000,4.000000,4.000000,4.000000,4.000000,1.000000,4.000000,4.000000,4.000000,2.000000,25.000000
1602279038.942194,39.000000,0.000000,3888.718018,4603.077148,4160.000000,4238.974121,3946.666748,4617.948730,3975.384521,3887.179443,4271.282227,3911.794922,4193.846191,4134.871582,4072.307617,3946.153809,0.000000,4.000000,,,,0.000000,4.000000,4.000000,0.000000,4.000000,4.000000,4.000000,4.000000,4.000000,4.000000,1.000000,4.000000,4.000000,4.000000,2.000000,25.000000
1602279038.949920,40.000000,0.000000,3892.820557,4604.102539,4161.538574,4241.025879,3955.384521,4626.666504,3973.846191,3886.666748,4275.897461,3910.769287,4195.897461,4137.948730,4073.333252,3952.307617,0.000000,4.000000,,,,0.000000,4.000000,4.000000,0.000000,4.000000,4.000000,4.000000,4.000000,4.000000,4.000000,1.000000,4.000000,4.000000,4.000000,2.000000,25.000000
1602279038.957745,41.000000,0.000000,3893.846191,4588.205078,4159.487305,4237.436035,3960.512939,4621.538574,3972.820557,3882.564209,4265.641113,3907.692383,4196.922852,4132.307617,4074.358887,3949.743652,0.000000,4.000000,,,,0.000000,4.000000,4.000000,0.000000,4.000000,4.000000,4.000000,4.000000,4.000000,4.000000,1.000000,4.000000,4.000000,4.000000,2.000000,25.000000
1602279038.965472,42.000000,0.000000,3885.641113,4584.615234,4157.436035,4229.743652,3945.128174,4599.487305,3969.230713,3876.410156,4254.871582,3906.153809,4186.153809,4121.025879,4065.128174,3940.512939,0.000000,4.000000,,,,0.000000,4.000000,4.000000,0.000000,4.000000,4.000000,4.000000,4.000000,4.000000,4.000000,1.000000,4.000000,4.000000,4.000000,2.000000,25.000000
1602279038.973298,43.000000,0.000000,3884.102539,4603.589844,4157.436035,4235.897461,3937.435791,4603.077148,3972.820557,3886.153809,4266.153809,3909.743652,4184.615234,4124.102539,4065.641113,3944.615479,0.000000,4.000000,,,,0.000000,4.000000,4.000000,0.000000,4.000000,4.000000,4.000000,4.000000,4.000000,4.000000,1.000000,4.000000,4.000000,4.000000,2.000000,25.000000
1602279038.981024,44.000000,0.000000,3884.102539,4606.153809,4158.461426,4244.102539,3944.615479,4624.102539,3975.384521,3899.487061,4277.948730,3912.307617,4187.692383,4129.743652,4070.769287,3946.153809,0.000000,4.000000,,,,0.000000,4.000000,4.000000,0.000000,4.000000,4.000000,4.000000,4.000000,4.000000,4.000000,1.000000,4.000000,4.000000,4.000000,2.000000,25.000000
1602279038.988849,45.000000,0.000000,3876.410156,4587.692383,4157.948730,4232.820313,3944.615479,4612.820313,3961.538574,3888.205078,4267.179688,3909.743652,4187.179688,4124.102539,4058.461426,3937.948730,0.000000,4.000000,,,,0.000000,4.000000,4.000000,0.000000,4.000000,4.000000,4.000000,4.000000,4.000000,4.000000,1.000000,4.000000,4.000000,4.000000,2.000000,25.000000
1602279038.996575,46.000000,0.000000,3878.461426,4580.512695,4158.974121,4223.589844,3945.641113,4596.922852,3947.692383,3870.256348,4254.871582,3910.256348,4194.871582,4129.230957,4050.769287,3943.589844,0.000000,4.000000,,,,0.000000,4.000000,4.000000,0.000000,4.000000,4.000000,4.000000,4.000000,4.000000,4.000000,1.000000,4.000000,4.000000,4.000000,2.000000,25.000000
1602279039.004503,47.000000,0.000000,3889.230713,4584.102539,4160.000000,4229.230957,3948.205078,4599.487305,3950.769287,3865.128174,4253.846191,3910.769287,4192.307617,4134.358887,4053.846191,3950.769287,0.000000,4.000000,,,,0.000000,4.000000,4.000000,0.000000,4.000000,4.000000,4.000000,4.000000,4.000000,4.000000,1.000000,4.000000,4.000000,4.000000,2.000000,25.000000
1602279039.012331,48.000000,0.000000,3891.794922,4591.282227,4157.436035,4232.307617,3949.230713,4605.128418,3963.076904,3870.256348,4255.897461,3907.692383,4185.128418,4125.128418,4060.512939,3945.128174,0.000000,4.000000,,,,0.000000,4.000000,4.000000,0.000000,4.000000,4.000000,4.000000,4.000000,4.000000,4.000000,1.000000,4.000000,4.000000,4.000000,2.000000,25.000000
1602279039.020259,49.000000,0.000000,3891.794922,4603.589844,4158.974121,4234.358887,3954.358887,4621.025879,3974.871826,3885.128174,4265.641113,3910.256348,4200.000000,4130.769043,4080.000000,3948.718018,0.000000,4.000000,,,,0.000000,4.000000,4.000000,0.000000,4.000000,4.000000,4.000000,4.000000,4.000000,4.000000,1.000000,4.000000,4.000000,4.000000,2.000000,25.000000
1602279039.028087,50.000000,0.000000,3892.820557,4606.666504,4162.051270,4237.948730,3970.256348,4632.820313,3978.974365,3899.487061,4277.436035,3913.846191,4207.692383,4144.102539,4086.153809,3954.358887,0.000000,4.000000,,,,0.000000,4.000000,4.000000,0.000000,4.000000,4.000000,4.000000,4.000000,4.000000,4.000000,1.000000,4.000000,4.000000,4.000000,2.000000,25.000000
1602279039.036015,51.000000,0.000000,3886.666748,4591.794922,4162.051270,4225.128418,3972.307617,4610.769043,3966.153809,3892.307617,4265.641113,3913.333252,4193.333496,4135.384766,4066.153809,3950.769287,0.000000,4.000000,,,,0.000000,4.000000,4.000000,0.000000,4.000000,4.000000,4.000000,4.000000,4.000000,4.000000,1.000000,4.000000,4.000000,4.000000,2.000000,25.000000
1602279039.043843,52.000000,0.000000,3877.948730,4578.974121,4156.410156,4218.461426,3945.128174,4593.333496,3955.897461,3873.846191,4248.205078,3910.769287,4187.692383,4121.025879,4051.794922,3946.153809,0.000000,4.000000,,,,0.000000,4.000000,4.000000,0.000000,4.000000,4.000000,4.000000,4.000000,4.000000,4.000000,1.000000,4.000000,4.000000,4.000000,2.000000,25.000000
1602279039.051770,53.000000,0.000000,3877.948730,4589.743652,4155.897461,4230.769043,3934.358887,4615.384766,3970.769287,3880.000000,4260.512695,3909.743652,4191.282227,4123.589844,4050.769287,3948.718018,0.000000,4.000000,,,,0.000000,4.000000,4.000000,0.000000,4.000000,4.000000,4.000000,4.000000,4.000000,4.000000,1.000000,4.000000,4.000000,4.000000,2.000000,25.000000
1602279039.059597,54.000000,0.000000,3880.000000,4604.615234,4158.461426,4234.871582,3957.948730,4636.410156,3987.179443,3895.384521,4279.487305,3911.281982,4187.692383,4127.692383,4052.820557,3946.666748,0.000000,4.000000,,,,0.000000,4.000000,4.000000,0.000000,4.000000,4.000000,4.000000,4.000000,4.000000,4.000000,1.000000,4.000000,4.000000,4.000000,2.000000,25.000000
1602279039.067324,55.000000,0.000000,3878.461426,4594.358887,4160.512695,4227.692383,3964.615479,4621.538574,3972.307617,3881.025635,4265.128418,3912.307617,4186.153809,4123.589844,4057.435791,3944.615479,0.000000,4.000000,,,,0.000000,4.000000,4.000000,0.000000,4.000000,4.000000,4.000000,4.000000,4.000000,4.000000,1.000000,4.000000,4.000000,4.000000,2.000000,25.000000
1602279039.075152,56.000000,0.000000,3873.846191,4577.436035,4156.410156,4227.179688,3944.615479,4596.922852,3952.820557,3863.076904,4245.641113,3909.743652,4183.077148,4117.436035,4053.333252,3943.076904,0.000000,4.000000,,,,0.000000,4.000000,4.000000,0.000000,4.000000,4.000000,4.000000,4.000000,4.000000,4.000000,1.000000,4.000000,4.000000,4.000000,2.000000,25.000000
1602279039.082879,57.000000,0.000000,3877.948730,4587.692383,4157.948730,4232.820313,3948.718018,4597.948730,3958.974365,3874.358887,4252.307617,3908.718018,4180.000000,4117.948730,4047.179443,3944.615479,0.000000,4.000000,,,,0.000000,4.000000,4.000000,0.000000,4.000000,4.000000,4.000000,4.000000,4.000000,4.000000,1.000000,4.000000,4.000000,4.000000,2.000000,25.000000
1602279039.090705,58.000000,0.000000,3889.743652,4607.692383,4161.025879,4234.358887,3963.076904,4609.230957,3964.102539,3876.923096,4260.512695,3911.794922,4188.205078,4125.641113,4053.846191,3946.666748,0.000000,4.000000,,,,0.000000,4.000000,4.000000,0.000000,4.000000,4.000000,4.000000,4.000000,4.000000,4.000000,1.000000,4.000000,4.000000,4.000000,2.000000,25.000000
1602279039.098432,59.000000,0.000000,3892.307617,4608.205078,4158.974121,4233.846191,3960.512939,4615.384766,3961.538574,3861.025635,4256.410156,3912.307617,4192.820313,4129.230957,4062.051270,3945.641113,0.000000,4.000000,,,,0.000000,4.000000,4.000000,0.000000,4.000000,4.000000,4.000000,4.000000,4.000000,4.000000,1.000000,4.000000,4.000000,4.000000,2.000000,25.000000
1602279039.106362,60.000000,0.000000,3885.641113,4598.974121,4155.384766,4238.461426,3958.974365,4621.025879,3969.230713,3865.128174,4256.922852,3910.769287,4191.282227,4127.692383,4063.589844,3946.666748,0.000000,4.000000,,,,0.000000,4.000000,4.000000,0.000000,4.000000,4.000000,4.000000,4.000000,4.000000,4.000000,1.000000,4.000000,4.000000,4.000000,2.000000,25.000000
1602279039.114191,61.000000,0.000000,3883.076904,4603.077148,4156.410156,4245.128418,3954.871826,4624.102539,3973.333252,3879.487061,4266.666504,3912.820557,4195.384766,4129.743652,4069.743652,3950.769287,0.000000,4.000000,,,,0.000000,4.000000,4.000000,0.000000,4.000000,4.000000,4.000000,4.000000,4.000000,4.000000,1.000000,4.000000,4.000000,4.000000,2.000000,25.000000
1602279039.122021,62.000000,0.000000,3883.076904,4606.666504,4158.461426,4237.436035,3941.025635,4617.436035,3963.589844,3885.128174,4277.436035,3915.897461,4192.307617,4128.717773,4071.794922,3947.179443,0.000000,4.000000,,,,0.000000,4.000000,4.000000,0.000000,4.000000,4.000000,4.000000,4.000000,4.000000,4.000000,1.000000,4.000000,4.000000,4.000000,2.000000,25.000000
1602279039.129747,63.000000,0.000000,3886.666748,4588.205078,4158.974121,4224.102539,3940.512939,4603.077148,3954.358887,3887.692383,4278.461426,3913.846191,4185.641113,4124.615234,4068.718018,3944.615479,0.000000,4.000000,,,,0.000000,4.000000,4.000000,0.000000,4.000000,4.000000,4.000000,4.000000,4.000000,4.000000,1.000000,4.000000,4.000000,4.000000,2.000000,25.000000
1602279039.137573,64.000000,0.000000,3896.923096,4576.922852,4158.461426,4226.666504,3957.435791,4602.051270,3955.384521,3883.076904,4273.846191,3913.333252,4193.333496,4127.692383,4067.692383,3952.307617,0.000000,4.000000,,,,0.000000,4.000000,4.000000,0.000000,4.000000,4.000000,4.000000,4.000000,4.000000,4.000000,1.000000,4.000000,4.000000,4.000000,2.000000,25.000000
1602279039.145299,65.000000,0.000000,3900.512939,4595.384766,4157.948730,4233.333496,3964.615479,4613.333496,3966.153809,3886.666748,4276.410156,3917.948730,4197.436035,4131.794922,4066.153809,3955.897461,419.000000,4.000000,,,,0.000000,4.000000,4.000000,0.000000,4.000000,4.000000,4.000000,4.000000,4.000000,4.000000,1.000000,4.000000,4.000000,4.000000,2.000000,25.000000
1602279039.153125,66.000000,0.000000,3895.384521,4610.769043,4160.000000,4237.948730,3963.076904,4610.769043,3968.718018,3891.281982,4271.794922,3916.410156,4191.794922,4127.692383,4065.641113,3950.256348,390.000000,4.000000,,,,0.000000,4.000000,4.000000,0.000000,4.000000,4.000000,4.000000,4.000000,4.000000,4.000000,1.000000,4.000000,4.000000,4.000000,2.000000,25.000000
1602279039.160851,67.000000,0.000000,3894.871826,4598.974121,4160.000000,4248.205078,3961.538574,4602.051270,3958.974365,3874.358887,4260.000000,3910.256348,4187.692383,4122.051270,4061.025635,3947.179443,443.000000,4.000000,,,,0.000000,4.000000,4.000000,0.000000,4.000000,4.000000,4.000000,4.000000,4.000000,4.000000,1.000000,4.000000,4.000000,4.000000,2.000000,25.000000
1602279039.168677,68.000000,0.000000,3897.948730,4595.384766,4160.512695,4252.307617,3953.333252,4613.333496,3960.000000,3859.487061,4258.974121,3911.281982,4181.538574,4121.538574,4055.897461,3948.718018,479.000000,4.000000,,,,0.000000,4.000000,4.000000,0.000000,4.000000,4.000000,4.000000,4.000000,4.000000,4.000000,1.000000,4.000000,4.000000,4.000000,2.000000,25.000000
1602279039.176402,69.000000,0.000000,3899.487061,4620.512695,4160.000000,4247.692383,3954.358887,4626.153809,3963.076904,3873.333252,4270.769043,3914.871826,4186.153809,4125.128418,4066.153809,3949.230713,411.000000,4.000000,,,,0.000000,4.000000,4.000000,0.000000,4.000000,4.000000,4.000000,4.000000,4.000000,4.000000,1.000000,4.000000,4.000000,4.000000,2.000000,25.000000
1602279039.184331,70.000000,0.000000,3904.615479,4632.820313,4161.025879,4247.179688,3968.205078,4618.974121,3961.025635,3889.230713,4276.410156,3914.871826,4201.538574,4133.846191,4077.948730,3953.333252,470.000000,4.000000,,,,0.000000,4.000000,4.000000,0.000000,4.000000,4.000000,4.000000,4.000000,4.000000,4.000000,1.000000,4.000000,4.000000,4.000000,2.000000,25.000000
1602279039.192160,71.000000,0.000000,3905.641113,4617.948730,4157.948730,4244.615234,3969.230713,4613.846191,3969.230713,3881.025635,4267.179688,3914.358887,4196.410156,4133.333496,4071.281982,3950.769287,393.000000,4.000000,,,,0.000000,4.000000,4.000000,0.000000,4.000000,4.000000,4.000000,4.000000,4.000000,4.000000,1.000000,4.000000,4.000000,4.000000,2.000000,25.000000
1602279039.200088,72.000000,0.000000,3894.358887,4604.615234,4158.974121,4235.384766,3961.025635,4609.743652,3968.718018,3864.102539,4252.307617,3912.820557,4171.282227,4118.974121,4057.948730,3944.102539,418.000000,4.000000,,,,0.000000,4.000000,4.000000,0.000000,4.000000,4.000000,4.000000,4.000000,4.000000,4.000000,1.000000,4.000000,4.000000,4.000000,2.000000,25.000000
1602279039.207916,73.000000,0.000000,3883.589844,4604.102539,4160.000000,4230.769043,3958.461426,4597.436035,3947.692383,3862.051270,4246.153809,3910.769287,4166.666504,4113.846191,4051.281982,3941.538574,52.000000,4.000000,,,,0.000000,4.000000,4.000000,0.000000,4.000000,4.000000,4.000000,4.000000,4.000000,4.000000,1.000000,4.000000,4.000000,4.000000,2.000000,25.000000
1602279039.215843,74.000000,0.000000,3889.230713,4601.538574,4159.487305,4235.897461,3953.846191,4603.589844,3950.769287,3876.410156,4259.487305,3912.820557,4183.589844,4121.025879,4050.769287,3945.641113,447.000000,4.000000,,,,0.000000,4.000000,4.000000,0.000000,4.000000,4.000000,4.000000,4.000000,4.000000,4.000000,1.000000,4.000000,4.000000,4.000000,2.000000,25.000000
1602279039.223671,75.000000,0.000000,3897.948730,4600.000000,4155.897461,4240.512695,3953.846191,4630.256348,3977.948730,3888.718018,4278.461426,3915.384521,4189.743652,4123.589844,4055.897461,3947.692383,239.000000,4.000000,,,,0.000000,4.000000,4.000000,0.000000,4.000000,4.000000,4.000000,4.000000,4.000000,4.000000,1.000000,4.000000,4.000000,4.000000,2.000000,25.000000
1602279039.231598,76.000000,0.000000,3895.897461,4605.128418,4157.948730,4246.153809,3970.256348,4628.717773,3968.205078,3886.153809,4278.974121,3913.846191,4182.563965,4124.615234,4055.384521,3946.153809,426.000000,4.000000,,,,0.000000,4.000000,4.000000,0.000000,4.000000,4.000000,4.000000,4.000000,4.000000,4.000000,1.000000,4.000000,4.000000,4.000000,2.000000,25.000000
1602279039.239426,77.000000,0.000000,3892.820557,4608.205078,4162.051270,4252.307617,3976.923096,4602.051270,3951.281982,3878.974365,4267.179688,3914.871826,4176.410156,4128.205078,4048.205078,3946.666748,356.000000,4.000000,,,,0.000000,4.000000,4.000000,0.000000,4.000000,4.000000,4.000000,4.000000,4.000000,4.000000,1.000000,4.000000,4.000000,4.000000,2.000000,25.000000
1602279039.247153,78.000000,0.000000,3895.897461,4606.153809,4160.512695,4241.538574,3962.564209,4606.666504,3974.871826,3882.564209,4265.128418,3917.948730,4178.461426,4125.641113,4048.718018,3949.230713,447.000000,4.000000,,,,0.000000,4.000000,4.000000,0.000000,4.000000,4.000000,4.000000,4.000000,4.000000,4.000000,1.000000,4.000000,4.000000,4.000000,2.000000,25.000000
1602279039.254981,79.000000,0.000000,3895.897461,4602.563965,4158.974121,4232.820313,3954.358887,4623.077148,3982.051270,3889.230713,4270.256348,3918.974365,4191.794922,4125.128418,4066.153809,3952.307617,239.000000,4.000000,,,,0.000000,4.000000,4.000000,0.000000,4.000000,4.000000,4.000000,4.000000,4.000000,4.000000,1.000000,4.000000,4.000000,4.000000,2.000000,25.000000
1602279039.262708,80.000000,0.000000,3893.333252,4597.948730,4160.512695,4243.077148,3958.974365,4616.410156,3959.487061,3883.589844,4273.333496,3920.512939,4203.589844,4132.820313,4085.641113,3950.256348,426.000000,4.000000,,,,0.000000,4.000000,4.000000,0.000000,4.000000,4.000000,4.000000,4.000000,4.000000,4.000000,1.000000,4.000000,4.000000,4.000000,2.000000,25.000000
1602279039.270535,81.000000,0.000000,3893.846191,4596.410156,4161.538574,4253.333496,3960.000000,4604.615234,3953.846191,3878.974365,4271.794922,3922.051270,4196.410156,4128.205078,4069.743652,3945.641113,356.000000,4.000000,,,,0.000000,4.000000,4.000000,0.000000,4.000000,4.000000,4.000000,4.000000,4.000000,4.000000,1.000000,4.000000,4.000000,4.000000,2.000000,25.000000
1602279039.278262,82.000000,0.000000,3891.794922,4608.205078,4157.948730,4248.205078,3964.615479,4597.436035,3955.384521,3876.923096,4263.077148,3920.512939,4175.897461,4114.358887,4033.846191,3943.076904,447.000000,4.000000,,,,0.000000,4.000000,4.000000,0.000000,4.000000,4.000000,4.000000,4.000000,4.000000,4.000000,1.000000,4.000000,4.000000,4.000000,2.000000,25.000000
1602279039.286089,83.000000,0.000000,3895.897461,4617.436035,4156.922852,4240.512695,3966.666748,4604.102539,3952.820557,3870.256348,4261.025879,3916.410156,4171.794922,4116.922852,4034.871826,3946.666748,239.000000,4.000000,,,,0.000000,4.000000,4.000000,0.000000,4.000000,4.000000,4.000000,4.000000,4.000000,4.000000,1.000000,4.000000,4.000000,4.000000,2.000000,25.000000
1602279039.293816,84.000000,0.000000,3904.615479,4613.333496,4158.974121,4246.666504,3956.410156,4622.563965,3962.564209,3870.256348,4272.307617,3911.794922,4185.641113,4127.692383,4063.076904,3948.205078,426.000000,4.000000,,,,0.000000,4.000000,4.000000,0.000000,4.000000,4.000000,4.000000,4.000000,4.000000,4.000000,1.000000,4.000000,4.000000,4.000000,2.000000,25.000000
1602279039.301642,85.000000,0.000000,3904.615479,4611.282227,4161.025879,4259.487305,3956.923096,4616.922852,3960.512939,3870.256348,4268.717773,3912.820557,4193.846191,4129.743652,4063.589844,3950.256348,356.000000,4.000000,,,,0.000000,4.000000,4.000000,0.000000,4.000000,4.000000,4.000000,4.000000,4.000000,4.000000,1.000000,4.000000,4.000000,4.000000,2.000000,25.000000
1602279039.309369,86.000000,0.000000,3901.538574,4618.974121,4158.974121,4262.563965,3959.487061,4603.589844,3951.794922,3862.051270,4254.358887,3921.538574,4191.282227,4129.230957,4045.641113,3954.871826,447.000000,4.000000,,,,0.000000,4.000000,4.000000,0.000000,4.000000,4.000000,4.000000,4.000000,4.000000,4.000000,1.000000,4.000000,4.000000,4.000000,2.000000,25.000000
1602279039.317195,87.000000,0.000000,3904.102539,4613.333496,4158.461426,4246.666504,3951.281982,4610.256348,3963.589844,3865.641113,4256.922852,3925.641113,4188.717773,4132.307617,4045.641113,3954.871826,239.000000,4.000000,,,,0.000000,4.000000,4.000000,0.000000,4.000000,4.000000,4.000000,4.000000,4.000000,4.000000,1.000000,4.000000,4.000000,4.000000,2.000000,25.000000
1602279039.324921,88.000000,0.000000,3897.435791,4588.205078,4158.974121,4233.333496,3960.000000,4597.948730,3955.384521,3866.153809,4258.461426,3922.051270,4187.179688,4125.641113,4052.820557,3942.564209,426.000000,4.000000,,,,0.000000,4.000000,4.000000,0.000000,4.000000,4.000000,4.000000,4.000000,4.000000,4.000000,1.000000,4.000000,4.000000,4.000000,2.000000,25.000000
1602279039.332747,89.000000,0.000000,3887.179443,4581.025879,4159.487305,4244.615234,3971.794922,4580.000000,3938.461426,3855.897461,4256.922852,3923.076904,4186.666504,4120.000000,4054.358887,3939.487061,356.000000,4.000000,,,,0.000000,4.000000,4.000000,0.000000,4.000000,4.000000,4.000000,4.000000,4.000000,4.000000,1.000000,4.000000,4.000000,4.000000,2.000000,25.000000
1602279039.340473,90.000000,0.000000,3890.769287,4602.051270,4156.410156,4250.769043,3958.974365,4604.102539,3957.435791,3870.256348,4269.230957,3925.128174,4188.717773,4129.230957,4055.897461,3948.718018,447.000000,4.000000,,,,0.000000,4.000000,4.000000,0.000000,4.000000,4.000000,4.000000,4.000000,4.000000,4.000000,1.000000,4.000000,4.000000,4.000000,2.000000,25.000000
1602279039.348402,91.000000,0.000000,3891.281982,4620.000000,4157.948730,4238.974121,3945.641113,4630.256348,3976.923096,3891.794922,4278.974121,3923.589844,4186.153809,4129.230957,4058.974365,3948.205078,239.000000,4.000000,,,,0.000000,4.000000,4.000000,0.000000,4.000000,4.000000,4.000000,4.000000,4.000000,4.000000,1.000000,4.000000,4.000000,4.000000,2.000000,25.000000
1602279039.356230,92.000000,0.000000,3883.076904,4617.436035,4157.436035,4239.487305,3961.538574,4622.563965,3962.564209,3886.153809,4275.384766,3922.564209,4185.641113,4120.512695,4058.461426,3944.615479,426.000000,4.000000,,,,0.000000,4.000000,4.000000,0.000000,4.000000,4.000000,4.000000,4.000000,4.000000,4.000000,1.000000,4.000000,4.000000,4.000000,2.000000,25.000000
1602279039.364158,93.000000,0.000000,3886.666748,4608.205078,4159.487305,4244.102539,3977.435791,4603.589844,3944.615479,3873.846191,4268.205078,3922.051270,4192.307617,4124.615234,4053.846191,3954.358887,356.000000,4.000000,,,,0.000000,4.000000,4.000000,0.000000,4.000000,4.000000,4.000000,4.000000,4.000000,4.000000,1.000000,4.000000,4.000000,4.000000,2.000000,25.000000
1602279039.371987,94.000000,0.000000,3897.435791,4600.512695,4163.077148,4241.538574,3962.564209,4601.025879,3948.205078,3878.461426,4270.256348,3923.589844,4197.948730,4135.384766,4053.333252,3961.025635,447.000000,4.000000,,,,0.000000,4.000000,4.000000,0.000000,4.000000,4.000000,4.000000,4.000000,4.000000,4.000000,1.000000,4.000000,4.000000,4.000000,2.000000,25.000000
1602279039.379915,95.000000,0.000000,3892.820557,4604.615234,4161.538574,4248.205078,3941.025635,4608.205078,3953.333252,3881.538574,4278.461426,3926.666748,4199.487305,4130.256348,4059.487061,3955.384521,239.000000,4.000000,,,,0.000000,4.000000,4.000000,0.000000,4.000000,4.000000,4.000000,4.000000,4.000000,4.000000,1.000000,4.000000,4.000000,4.000000,2.000000,25.000000
1602279039.387743,96.000000,0.000000,3883.076904,4615.897461,4157.436035,4260.000000,3958.461426,4600.512695,3947.179443,3867.179443,4270.256348,3926.666748,4194.358887,4122.563965,4057.948730,3954.358887,426.000000,4.000000,,,,0.000000,4.000000,4.000000,0.000000,4.000000,4.000000,4.000000,4.000000,4.000000,4.000000,1.000000,4.000000,4.000000,4.000000,2.000000,25.000000
1602279039.395670,97.000000,0.000000,3892.307617,4616.410156,4158.974121,4251.282227,3984.102539,4597.948730,3951.281982,3863.076904,4261.025879,3922.564209,4192.307617,4126.153809,4053.846191,3958.461426,356.000000,4.000000,,,,0.000000,4.000000,4.000000,0.000000,4.000000,4.000000,4.000000,4.000000,4.000000,4.000000,1.000000,4.000000,4.000000,4.000000,2.000000,25.000000
1602279039.403498,98.000000,0.000000,3903.076904,4615.897461,4162.563965,4236.922852,3963.076904,4622.563965,3970.256348,3877.948730,4270.769043,3922.564209,4200.512695,4130.769043,4065.641113,3960.512939,447.000000,4.000000,,,,0.000000,4.000000,4.000000,0.000000,4.000000,4.000000,4.000000,4.000000,4.000000,4.000000,1.000000,4.000000,4.000000,4.000000,2.000000,25.000000
1602279039.411425,99.000000,0.000000,3895.384521,4616.922852,4159.487305,4235.897461,3938.974365,4628.717773,3973.846191,3886.153809,4280.512695,3928.718018,4202.563965,4132.307617,4072.820557,3956.923096,239.000000,4.000000,,,,0.000000,4.000000,4.000000,0.000000,4.000000,4.000000,4.000000,4.000000,4.000000,4.000000,1.000000,4.000000,4.000000,4.000000,2.000000,25.000000
1602279039.419252,100.000000,0.000000,3886.153809,4604.102539,4160.512695,4232.820313,3946.666748,4605.128418,3959.487061,3879.487061,4276.922852,3929.230713,4195.897461,4126.666504,4051.281982,3951.794922,426.000000,4.000000,,,,0.000000,4.000000,4.000000,0.000000,4.000000,4.000000,4.000000,4.000000,4.000000,4.000000,1.000000,4.000000,4.000000,4.000000,2.000000,25.000000
1602279039.426980,101.000000,0.000000,3888.205078,4593.333496,4161.538574,4229.743652,3965.128174,4603.077148,3956.410156,3876.410156,4276.922852,3926.153809,4205.128418,4124.615234,4043.589844,3951.794922,356.000000,4.000000,,,,0.000000,4.000000,4.000000,0.000000,4.000000,4.000000,4.000000,4.000000,4.000000,4.000000,1.000000,4.000000,4.000000,4.000000,2.000000,25.000000
1602279039.434807,102.000000,0.000000,3891.281982,4605.128418,4160.000000,4232.307617,3976.410156,4621.538574,3966.153809,3884.615479,4280.512695,3928.205078,4215.384766,4130.769043,4072.307617,3957.435791,447.000000,4.000000,,,,0.000000,4.000000,4.000000,0.000000,4.000000,4.000000,4.000000,4.000000,4.000000,4.000000,1.000000,4.000000,4.000000,4.000000,2.000000,25.000000
1602279039.442534,103.000000,0.000000,3884.102539,4616.922852,4158.974121,4234.358887,3965.641113,4628.205078,3975.384521,3892.307617,4285.641113,3931.281982,4206.153809,4125.128418,4086.666748,3953.333252,239.000000,4.000000,,,,0.000000,4.000000,4.000000,0.000000,4.000000,4.000000,4.000000,4.000000,4.000000,4.000000,1.000000,4.000000,4.000000,4.000000,2.000000,25.000000
1602279039.450361,104.000000,0.000000,3877.435791,4613.846191,4160.000000,4233.846191,3946.666748,4621.538574,3970.769287,3891.281982,4292.307617,3930.256348,4198.974121,4111.794922,4057.435791,3948.205078,426.000000,4.000000,,,,0.000000,4.000000,4.000000,0.000000,4.000000,4.000000,4.000000,4.000000,4.000000,4.000000,1.000000,4.000000,4.000000,4.000000,2.000000,25.000000
1602279039.458088,105.000000,0.000000,3884.102539,4613.333496,4159.487305,4233.846191,3960.000000,4615.897461,3961.538574,3884.102539,4288.205078,3928.718018,4201.025879,4115.384766,4034.871826,3954.871826,356.000000,4.000000,,,,0.000000,4.000000,4.000000,0.000000,4.000000,4.000000,4.000000,4.000000,4.000000,4.000000,1.000000,4.000000,4.000000,4.000000,2.000000,25.000000
1602279039.465915,106.000000,0.000000,3891.794922,4609.743652,4162.051270,4234.358887,3971.281982,4610.769043,3953.846191,3871.281982,4267.692383,3929.230713,4194.871582,4122.051270,4044.615479,3956.410156,447.000000,4.000000,,,,0.000000,4.000000,4.000000,0.000000,4.000000,4.000000,4.000000,4.000000,4.000000,4.000000,1.000000,4.000000,4.000000,4.000000,2.000000,25.000000
1602279039.473641,107.000000,0.000000,3884.615479,4600.512695,4162.051270,4232.307617,3944.615479,4602.051270,3941.025635,3848.205078,4245.641113,3926.666748,4183.077148,4110.256348,4055.384521,3947.179443,239.000000,4.000000,,,,0.000000,4.000000,4.000000,0.000000,4.000000,4.000000,4.000000,4.000000,4.000000,4.000000,1.000000,4.000000,4.000000,4.000000,2.000000,25.000000
1602279039.481467,108.000000,0.000000,3880.512939,4606.666504,4158.461426,4230.256348,3942.564209,4599.487305,3945.641113,3845.128174,4249.743652,3922.051270,4183.589844,4109.743652,4053.846191,3947.179443,426.000000,4.000000,,,,0.000000,4.000000,4.000000,0.000000,4.000000,4.000000,4.000000,4.000000,4.000000,4.000000,1.000000,4.000000,4.000000,4.000000,2.000000,25.000000
1602279039.489193,109.000000,0.000000,3890.256348,4616.922852,4155.897461,4230.769043,3965.128174,4612.820313,3970.769287,3871.794922,4273.846191,3923.589844,4192.307617,4125.128418,4052.307617,3956.923096,356.000000,4.000000,,,,0.000000,4.000000,4.000000,0.000000,4.000000,4.000000,4.000000,4.000000,4.000000,4.000000,1.000000,4.000000,4.000000,4.000000,2.000000,25.000000
1602279039.497020,110.000000,0.000000,3897.435791,4614.358887,4157.948730,4241.538574,3960.512939,4625.641113,3980.000000,3884.615479,4282.563965,3934.871826,4202.051270,4131.282227,4060.000000,3962.564209,447.000000,4.000000,,,,0.000000,4.000000,4.000000,0.000000,4.000000,4.000000,4.000000,4.000000,4.000000,4.000000,1.000000,4.000000,4.000000,4.000000,2.000000,25.000000
1602279039.504746,111.000000,0.000000,3896.923096,4616.922852,4158.974121,4251.794922,3952.307617,4620.512695,3971.281982,3879.487061,4278.974121,3941.025635,4205.128418,4129.230957,4062.564209,3963.589844,239.000000,4.000000,,,,0.000000,4.000000,4.000000,0.000000,4.000000,4.000000,4.000000,4.000000,4.000000,4.000000,1.000000,4.000000,4.000000,4.000000,2.000000,25.000000
1602279039.512675,112.000000,0.000000,3890.769287,4618.461426,4158.974121,4242.051270,3962.564209,4612.307617,3973.333252,3880.512939,4280.000000,3935.384521,4203.589844,4128.717773,4060.512939,3962.051270,426.000000,4.000000,,,,0.000000,4.000000,4.000000,0.000000,4.000000,4.000000,4.000000,4.000000,4.000000,4.000000,1.000000,4.000000,4.000000,4.000000,2.000000,25.000000
1602279039.520504,113.000000,0.000000,3885.641113,4604.102539,4161.025879,4227.179688,3953.333252,4606.666504,3961.025635,3875.384521,4272.820313,3929.743652,4200.512695,4125.128418,4064.102539,3958.974365,356.000000,4.000000,,,,0.000000,4.000000,4.000000,0.000000,4.000000,4.000000,4.000000,4.000000,4.000000,4.000000,1.000000,4.000000,4.000000,4.000000,2.000000,25.000000
1602279039.528333,114.000000,0.000000,3887.179443,4596.922852,4161.025879,4229.743652,3934.358887,4598.974121,3933.846191,3862.564209,4262.051270,3927.692383,4198.974121,4118.461426,4065.128174,3957.435791,447.000000,4.000000,,,,0.000000,4.000000,4.000000,0.000000,4.000000,4.000000,4.000000,4.000000,4.000000,4.000000,1.000000,4.000000,4.000000,4.000000,2.000000,25.000000
1602279039.536059,115.000000,0.000000,3886.666748,4595.384766,4161.025879,4235.384766,3952.820557,4599.487305,3944.615479,3863.076904,4270.769043,3931.794922,4203.589844,4122.051270,4058.461426,3956.410156,239.000000,4.000000,,,,0.000000,4.000000,4.000000,0.000000,4.000000,4.000000,4.000000,4.000000,4.000000,4.000000,1.000000,4.000000,4.000000,4.000000,2.000000,25.000000
1602279039.543884,116.000000,0.000000,3878.461426,4586.666504,4158.974121,4231.282227,3966.666748,4608.717773,3972.820557,3870.769287,4285.641113,3937.948730,4200.000000,4125.641113,4045.641113,3953.333252,426.000000,4.000000,,,,0.000000,4.000000,4.000000,0.000000,4.000000,4.000000,4.000000,4.000000,4.000000,4.000000,1.000000,4.000000,4.000000,4.000000,2.000000,25.000000
1602279039.551610,117.000000,0.000000,3875.384521,4590.256348,4158.974121,4230.256348,3954.358887,4615.897461,3969.230713,3872.820557,4280.000000,3935.897461,4188.205078,4115.897461,4044.615479,3949.230713,356.000000,4.000000,,,,0.000000,4.000000,4.000000,0.000000,4.000000,4.000000,4.000000,4.000000,4.000000,4.000000,1.000000,4.000000,4.000000,4.000000,2.000000,25.000000
1602279039.559537,118.000000,0.000000,3874.871826,4603.589844,4155.897461,4234.358887,3953.846191,4613.333496,3951.794922,3868.205078,4266.666504,3928.718018,4178.974121,4106.153809,4047.692383,3944.615479,447.000000,4.000000,,,,0.000000,4.000000,4.000000,0.000000,4.000000,4.000000,4.000000,4.000000,4.000000,4.000000,1.000000,4.000000,4.000000,4.000000,2.000000,25.000000
1602279039.567365,119.000000,0.000000,3874.358887,4601.025879,4155.897461,4229.230957,3950.256348,4597.948730,3944.615479,3857.435791,4254.358887,3925.641113,4170.769043,4109.230957,4035.897461,3945.641113,239.000000,4.000000,,,,0.000000,4.000000,4.000000,0.000000,4.000000,4.000000,4.000000,4.000000,4.000000,4.000000,1.000000,4.000000,4.000000,4.000000,2.000000,25.000000
1602279039.575293,120.000000,0.000000,3881.025635,4600.512695,4156.922852,4228.717773,3942.051270,4586.666504,3940.000000,3850.256348,4247.179688,3925.128174,4173.333496,4113.846191,4033.333252,3948.205078,426.000000,4.000000,,,,0.000000,4.000000,4.000000,0.000000,4.000000,4.000000,4.000000,4.000000,4.000000,4.000000,1.000000,4.000000,4.000000,4.000000,2.000000,25.000000
1602279039.583121,121.000000,0.000000,3892.307617,4624.615234,4158.461426,4248.717773,3964.615479,4604.615234,3954.358887,3861.538574,4261.025879,3926.666748,4187.179688,4116.410156,4056.923096,3953.333252,356.000000,4.000000,,,,0.000000,4.000000,4.000000,0.000000,4.000000,4.000000,4.000000,4.000000,4.000000,4.000000,1.000000,4.000000,4.000000,4.000000,2.000000,25.000000
1602279039.591048,122.000000,0.000000,3890.256348,4628.717773,4158.461426,4254.358887,3972.307617,4629.230957,3978.461426,3874.871826,4276.922852,3928.718018,4188.717773,4117.948730,4067.692383,3953.333252,447.000000,4.000000,,,,0.000000,4.000000,4.000000,0.000000,4.000000,4.000000,4.000000,4.000000,4.000000,4.000000,1.000000,4.000000,4.000000,4.000000,2.000000,25.000000
1602279039.598876,123.000000,0.000000,3881.025635,4594.358887,4163.077148,4234.358887,3949.230713,4614.871582,3964.615479,3867.179443,4267.179688,3926.666748,4184.102539,4114.358887,4052.307617,3950.769287,239.000000,4.000000,,,,0.000000,4.000000,4.000000,0.000000,4.000000,4.000000,4.000000,4.000000,4.000000,4.000000,1.000000,4.000000,4.000000,4.000000,2.000000,25.000000
1602279039.606803,124.000000,0.000000,3880.512939,4582.563965,4164.615234,4228.205078,3965.641113,4589.230957,3937.435791,3862.564209,4261.025879,3931.794922,4192.307617,4117.948730,4052.307617,3954.871826,426.000000,4.000000,,,,0.000000,4.000000,4.000000,0.000000,4.000000,4.000000,4.000000,4.000000,4.000000,4.000000,1.000000,4.000000,4.000000,4.000000,2.000000,25.000000
1602279039.614630,125.000000,0.000000,3881.025635,4602.051270,4161.538574,4238.461426,3978.461426,4592.820313,3941.538574,3870.256348,4269.230957,3939.487061,4193.333496,4120.512695,4057.948730,3957.435791,356.000000,4.000000,,,,0.000000,4.000000,4.000000,0.000000,4.000000,4.000000,4.000000,4.000000,4.000000,4.000000,1.000000,4.000000,4.000000,4.000000,2.000000,25.000000
1602279039.622357,126.000000,0.000000,3878.974365,4609.743652,4156.410156,4235.897461,3940.000000,4607.179688,3956.410156,3874.871826,4273.333496,3937.948730,4190.769043,4114.358887,4055.384521,3954.871826,447.000000,4.000000,,,,0.000000,4.000000,4.000000,0.000000,4.000000,4.000000,4.000000,4.000000,4.000000,4.000000,1.000000,4.000000,4.000000,4.000000,2.000000,25.000000
1602279039.630184,127.000000,0.000000,3881.538574,4606.153809,4157.948730,4229.743652,3930.256348,4610.769043,3948.205078,3877.435791,4280.000000,3935.384521,4200.000000,4120.000000,4067.692383,3956.410156,239.000000,4.000000,,,,0.000000,4.000000,4.000000,0.000000,4.000000,4.000000,4.000000,4.000000,4.000000,4.000000,1.000000,4.000000,4.000000,4.000000,2.000000,25.000000
1602279039.637910,128.000000,0.000000,3885.641113,4603.077148,4162.563965,4230.769043,3962.051270,4597.948730,3944.102539,3875.384521,4281.025879,3937.948730,4204.615234,4130.256348,4076.410156,3960.000000,426.000000,4.000000,,,,0.000000,4.000000,4.000000,0.000000,4.000000,4.000000,4.000000,4.000000,4.000000,4.000000,1.000000,4.000000,4.000000,4.000000,2.000000,25.000000
1602279039.645737,0.000000,0.000000,3885.641113,4600.512695,4161.538574,4233.333496,3974.358887,4597.436035,3964.615479,3877.435791,4276.922852,3938.974365,4202.563965,4124.615234,4073.846191,3955.897461,0.000000,4.000000,,,,0.000000,4.000000,4.000000,0.000000,4.000000,4.000000,4.000000,4.000000,4.000000,4.000000,1.000000,4.000000,4.000000,4.000000,2.000000,25.000000
1602279039.653464,1.000000,0.000000,3884.615479,4601.025879,4158.974121,4234.871582,3961.538574,4612.307617,3964.615479,3882.051270,4283.077148,3935.384521,4196.922852,4116.410156,4070.256348,3953.333252,419.000000,4.000000,,,,0.000000,4.000000,4.000000,0.000000,4.000000,4.000000,4.000000,4.000000,4.000000,4.000000,1.000000,4.000000,4.000000,4.000000,2.000000,25.000000
1602279039.661393,2.000000,0.000000,3878.461426,4597.948730,4159.487305,4232.307617,3946.666748,4608.205078,3936.410156,3865.641113,4278.974121,3933.333252,4185.128418,4115.897461,4058.461426,3953.846191,388.000000,4.000000,,,,0.000000,4.000000,4.000000,0.000000,4.000000,4.000000,4.000000,4.000000,4.000000,4.000000,1.000000,4.000000,4.000000,4.000000,2.000000,25.000000
1602279039.669222,3.000000,0.000000,3877.948730,4592.820313,4161.025879,4233.333496,3945.641113,4596.410156,3934.358887,3850.256348,4264.615234,3932.820557,4183.077148,4117.948730,4054.871826,3952.820557,446.000000,4.000000,,,,0.000000,4.000000,4.000000,0.000000,4.000000,4.000000,4.000000,4.000000,4.000000,4.000000,1.000000,4.000000,4.000000,4.000000,2.000000,25.000000
1602279039.677151,4.000000,0.000000,3883.589844,4596.922852,4157.948730,4234.871582,3945.128174,4600.000000,3952.307617,3858.974365,4262.051270,3929.743652,4191.282227,4118.461426,4063.076904,3949.743652,479.000000,4.000000,,,,0.000000,4.000000,4.000000,0.000000,4.000000,4.000000,4.000000,4.000000,4.000000,4.000000,1.000000,4.000000,4.000000,4.000000,2.000000,25.000000
1602279039.684980,5.000000,0.000000,3878.461426,4600.512695,4158.461426,4232.307617,3940.000000,4599.487305,3944.615479,3864.615479,4264.102539,3926.666748,4193.333496,4118.461426,4062.564209,3951.281982,411.000000,4.000000,,,,0.000000,4.000000,4.000000,0.000000,4.000000,4.000000,4.000000,4.000000,4.000000,4.000000,1.000000,4.000000,4.000000,4.000000,2.000000,25.000000
1602279039.692809,6.000000,0.000000,3873.333252,4602.051270,4157.436035,4237.436035,3966.153809,4604.102539,3943.589844,3872.307617,4274.358887,3933.333252,4195.897461,4118.974121,4064.102539,3952.307617,470.000000,4.000000,,,,0.000000,4.000000,4.000000,0.000000,4.000000,4.000000,4.000000,4.000000,4.000000,4.000000,1.000000,4.000000,4.000000,4.000000,2.000000,25.000000
1602279039.700535,7.000000,0.000000,3877.948730,4600.000000,4158.461426,4240.000000,3991.281982,4624.615234,3962.564209,3885.128174,4290.256348,3942.564209,4195.384766,4120.000000,4063.589844,3950.256348,393.000000,4.000000,,,,0.000000,4.000000,4.000000,0.000000,4.000000,4.000000,4.000000,4.000000,4.000000,4.000000,1.000000,4.000000,4.000000,4.000000,2.000000,25.000000
1602279039.708463,8.000000,0.000000,3874.358887,4597.436035,4161.538574,4230.769043,3971.281982,4613.846191,3953.846191,3869.743652,4281.538574,3940.000000,4185.128418,4112.820313,4050.769287,3946.666748,418.000000,4.000000,,,,0.000000,4.000000,4.000000,0.000000,4.000000,4.000000,4.000000,4.000000,4.000000,4.000000,1.000000,4.000000,4.000000,4.000000,2.000000,25.000000
1602279039.716292,9.000000,0.000000,3870.256348,4608.717773,4160.000000,4230.769043,3946.666748,4590.769043,3937.435791,3851.794922,4264.615234,3937.948730,4183.077148,4105.641113,4055.384521,3945.128174,52.000000,4.000000,,,,0.000000,4.000000,4.000000,0.000000,4.000000,4.000000,4.000000,4.000000,4.000000,4.000000,1.000000,4.000000,4.000000,4.000000,2.000000,25.000000
1602279039.724220,10.000000,0.000000,3881.538574,4624.615234,4155.897461,4243.077148,3955.897461,4603.589844,3947.179443,3865.641113,4280.000000,3941.025635,4200.000000,4117.436035,4079.487061,3949.230713,447.000000,4.000000,,,,0.000000,4.000000,4.000000,0.000000,4.000000,4.000000,4.000000,4.000000,4.000000,4.000000,1.000000,4.000000,4.000000,4.000000,2.000000,25.000000
1602279039.732048,11.000000,0.000000,3894.871826,4623.589844,4160.512695,4249.743652,3977.948730,4623.589844,3961.025635,3883.076904,4300.512695,3947.179443,4220.000000,4133.846191,4092.307617,3958.974365,239.000000,4.000000,,,,0.000000,4.000000,4.000000,0.000000,4.000000,4.000000,4.000000,4.000000,4.000000,4.000000,1.000000,4.000000,4.000000,4.000000,2.000000,25.000000
1602279039.739976,12.000000,0.000000,3898.461426,4607.179688,4163.589844,4248.205078,3982.564209,4625.641113,3967.692383,3888.718018,4301.025879,3949.743652,4222.563965,4134.871582,4092.307617,3963.076904,426.000000,4.000000,,,,0.000000,4.000000,4.000000,0.000000,4.000000,4.000000,4.000000,4.000000,4.000000,4.000000,1.000000,4.000000,4.000000,4.000000,2.000000,25.000000
1602279039.747804,13.000000,0.000000,3893.846191,4601.025879,4158.461426,4241.538574,3964.615479,4622.051270,3971.281982,3890.769287,4298.461426,3945.641113,4208.717773,4128.717773,4085.641113,3959.487061,356.000000,4.000000,,,,0.000000,4.000000,4.000000,0.000000,4.000000,4.000000,4.000000,4.000000,4.000000,4.000000,1.000000,4.000000,4.000000,4.000000,2.000000,25.000000
1602279039.755732,14.000000,0.000000,3885.641113,4610.769043,4156.922852,4230.769043,3942.051270,4608.205078,3960.512939,3881.538574,4289.230957,3939.487061,4191.282227,4122.051270,4074.358887,3952.307617,447.000000,4.000000,,,,0.000000,4.000000,4.000000,0.000000,4.000000,4.000000,4.000000,4.000000,4.000000,4.000000,1.000000,4.000000,4.000000,4.000000,2.000000,25.000000
1602279039.763560,15.000000,0.000000,3886.666748,4602.563965,4159.487305,4228.205078,3952.820557,4597.436035,3952.307617,3866.666748,4277.948730,3936.923096,4185.641113,4120.000000,4070.256348,3951.281982,239.000000,4.000000,,,,0.000000,4.000000,4.000000,0.000000,4.000000,4.000000,4.000000,4.000000,4.000000,4.000000,1.000000,4.000000,4.000000,4.000000,2.000000,25.000000
1602279039.771487,16.000000,0.000000,3894.358887,4584.102539,4159.487305,4233.333496,3981.538574,4611.794922,3958.461426,3867.179443,4278.461426,3940.000000,4192.820313,4125.641113,4071.281982,3958.461426,0.000000,4.000000,,,,0.000000,4.000000,4.000000,0.000000,4.000000,4.000000,4.000000,4.000000,4.000000,4.000000,1.000000,4.000000,4.000000,4.000000,2.000000,25.000000
1602279039.779315,17.000000,0.000000,3888.205078,4591.794922,4160.000000,4233.846191,3976.410156,4620.512695,3960.512939,3872.820557,4276.410156,3943.076904,4198.461426,4129.743652,4071.281982,3963.076904,0.000000,4.000000,,,,0.000000,4.000000,4.000000,0.000000,4.000000,4.000000,4.000000,4.000000,4.000000,4.000000,1.000000,4.000000,4.000000,4.000000,2.000000,25.000000
1602279039.787042,18.000000,0.000000,3876.410156,4607.179688,4160.000000,4232.820313,3943.076904,4609.230957,3956.923096,3863.589844,4261.025879,3941.538574,4192.307617,4123.589844,4076.410156,3959.487061,0.000000,4.000000,,,,0.000000,4.000000,4.000000,0.000000,4.000000,4.000000,4.000000,4.000000,4.000000,4.000000,1.000000,4.000000,4.000000,4.000000,2.000000,25.000000
1602279039.794869,19.000000,0.000000,3873.333252,4590.256348,4158.461426,4227.179688,3936.923096,4601.538574,3955.384521,3858.974365,4258.461426,3937.435791,4179.487305,4115.897461,4075.897461,3950.256348,0.000000,4.000000,,,,0.000000,4.000000,4.000000,0.000000,4.000000,4.000000,4.000000,4.000000,4.000000,4.000000,1.000000,4.000000,4.000000,4.000000,2.000000,25.000000
1602279039.802596,20.000000,0.000000,3876.923096,4571.794922,4160.000000,4222.051270,3975.384521,4610.256348,3961.538574,3874.358887,4273.333496,3938.461426,4185.641113,4122.563965,4060.000000,3950.256348,0.000000,4.000000,,,,0.000000,4.000000,4.000000,0.000000,4.000000,4.000000,4.000000,4.000000,4.000000,4.000000,1.000000,4.000000,4.000000,4.000000,2.000000,25.000000
1602279039.810423,21.000000,0.000000,3876.410156,4590.256348,4160.000000,4227.179688,3990.256348,4618.974121,3968.205078,3889.743652,4284.102539,3942.051270,4202.563965,4131.282227,4059.487061,3956.410156,0.000000,4.000000,,,,0.000000,4.000000,4.000000,0.000000,4.000000,4.000000,4.000000,4.000000,4.000000,4.000000,1.000000,4.000000,4.000000,4.000000,2.000000,25.000000
1602279039.818150,22.000000,0.000000,3876.923096,4624.102539,4158.974121,4233.846191,3969.230713,4625.641113,3970.769287,3890.256348,4297.436035,3944.615479,4206.153809,4131.282227,4087.179443,3960.000000,0.000000,4.000000,,,,0.000000,4.000000,4.000000,0.000000,4.000000,4.000000,4.000000,4.000000,4.000000,4.000000,1.000000,4.000000,4.000000,4.000000,2.000000,25.000000
1602279039.825977,23.000000,0.000000,3879.487061,4621.538574,4158.461426,4238.461426,3958.461426,4624.615234,3966.153809,3883.076904,4302.051270,3944.615479,4205.641113,4127.692383,4104.615234,3956.923096,0.000000,4.000000,,,,0.000000,4.000000,4.000000,0.000000,4.000000,4.000000,4.000000,4.000000,4.000000,4.000000,1.000000,4.000000,4.000000,4.000000,2.000000,25.000000
1602279039.833703,24.000000,0.000000,3881.538574,4594.358887,4161.538574,4244.615234,3963.076904,4611.794922,3957.435791,3876.923096,4284.615234,3942.564209,4209.230957,4128.205078,4091.281982,3957.435791,0.000000,4.000000,,,,0.000000,4.000000,4.000000,0.000000,4.000000,4.000000,4.000000,4.000000,4.000000,4.000000,1.000000,4.000000,4.000000,4.000000,2.000000,25.000000
1602279039.841529,25.000000,0.000000,3887.179443,4609.743652,4157.948730,4249.230957,3978.974365,4618.974121,3964.102539,3883.589844,4286.666504,3946.153809,4210.256348,4130.769043,4082.564209,3963.076904,0.000000,4.000000,,,,0.000000,4.000000,4.000000,0.000000,4.000000,4.000000,4.000000,4.000000,4.000000,4.000000,1.000000,4.000000,4.000000,4.000000,2.000000,25.000000
1602279039.849256,26.000000,0.000000,3894.358887,4644.102539,4157.436035,4250.256348,3996.923096,4637.436035,3977.948730,3894.358887,4308.205078,3948.718018,4207.179688,4132.820313,4090.256348,3965.641113,0.000000,4.000000,,,,0.000000,4.000000,4.000000,0.000000,4.000000,4.000000,4.000000,4.000000,4.000000,4.000000,1.000000,4.000000,4.000000,4.000000,2.000000,25.000000
1602279039.857082,27.000000,0.000000,3891.281982,4634.871582,4160.512695,4250.769043,3992.307617,4630.256348,3969.743652,3885.128174,4295.897461,3946.153809,4204.102539,4129.743652,4092.820557,3960.512939,0.000000,4.000000,,,,0.000000,4.000000,4.000000,0.000000,4.000000,4.000000,4.000000,4.000000,4.000000,4.000000,1.000000,4.000000,4.000000,4.000000,2.000000,25.000000
1602279039.864808,28.000000,0.000000,3883.076904,4602.563965,4160.512695,4239.487305,3976.923096,4608.205078,3947.179443,3861.025635,4264.615234,3942.564209,4192.307617,4120.000000,4077.435791,3955.384521,0.000000,4.000000,,,,0.000000,4.000000,4.000000,0.000000,4.000000,4.000000,4.000000,4.000000,4.000000,4.000000,1.000000,4.000000,4.000000,4.000000,2.000000,25.000000
1602279039.872634,29.000000,0.000000,3880.512939,4590.769043,4156.922852,4226.153809,3973.333252,4600.000000,3942.564209,3850.256348,4259.487305,3933.333252,4178.974121,4115.384766,4053.333252,3957.435791,0.000000,4.000000,,,,0.000000,4.000000,4.000000,0.000000,4.000000,4.000000,4.000000,4.000000,4.000000,4.000000,1.000000,4.000000,4.000000,4.000000,2.000000,25.000000
1602279039.880359,30.000000,0.000000,3877.948730,4600.512695,4158.461426,4237.948730,3963.589844,4602.563965,3944.615479,3860.512939,4262.563965,3929.230713,4180.000000,4115.384766,4043.076904,3956.410156,0.000000,4.000000,,,,0.000000,4.000000,4.000000,0.000000,4.000000,4.000000,4.000000,4.000000,4.000000,4.000000,1.000000,4.000000,4.000000,4.000000,2.000000,25.000000
1602279039.888185,31.000000,0.000000,3876.410156,4604.102539,4161.025879,4244.102539,3960.512939,4611.794922,3948.205078,3867.692383,4257.436035,3940.512939,4185.128418,4113.333496,4053.333252,3951.281982,0.000000,4.000000,,,,0.000000,4.000000,4.000000,0.000000,4.000000,4.000000,4.000000,4.000000,4.000000,4.000000,1.000000,4.000000,4.000000,4.000000,2.000000,25.000000
1602279039.895910,32.000000,0.000000,3880.000000,4595.897461,4158.974121,4231.282227,3975.897461,4617.948730,3960.000000,3861.025635,4262.563965,3944.615479,4186.153809,4113.846191,4067.179443,3957.948730,0.000000,4.000000,,,,0.000000,4.000000,4.000000,0.000000,4.000000,4.000000,4.000000,4.000000,4.000000,4.000000,1.000000,4.000000,4.000000,4.000000,2.000000,25.000000
1602279039.903838,33.000000,0.000000,3886.666748,4602.051270,4160.512695,4230.256348,3977.948730,4613.846191,3962.051270,3862.564209,4276.410156,3939.487061,4189.230957,4120.512695,4074.871826,3967.692383,0.000000,4.000000,,,,0.000000,4.000000,4.000000,0.000000,4.000000,4.000000,4.000000,4.000000,4.000000,4.000000,1.000000,4.000000,4.000000,4.000000,2.000000,25.000000
1602279039.911666,34.000000,0.000000,3888.205078,4616.922852,4162.051270,4237.948730,3965.641113,4613.846191,3956.923096,3874.871826,4284.615234,3941.025635,4200.000000,4122.563965,4074.358887,3962.051270,0.000000,4.000000,,,,0.000000,4.000000,4.000000,0.000000,4.000000,4.000000,4.000000,4.000000,4.000000,4.000000,1.000000,4.000000,4.000000,4.000000,2.000000,25.000000
1602279039.919594,35.000000,0.000000,3879.487061,4607.692383,4160.512695,4232.820313,3956.923096,4611.282227,3951.794922,3873.333252,4282.051270,3943.076904,4203.077148,4120.000000,4069.743652,3954.871826,0.000000,4.000000,,,,0.000000,4.000000,4.000000,0.000000,4.000000,4.000000,4.000000,4.000000,4.000000,4.000000,1.000000,4.000000,4.000000,4.000000,2.000000,25.000000
1602279039.927422,36.000000,0.000000,3872.307617,4595.897461,4160.000000,4230.256348,3964.615479,4612.820313,3956.923096,3873.846191,4288.717773,3944.615479,4197.948730,4120.512695,4078.461426,3955.897461,0.000000,4.000000,,,,0.000000,4.000000,4.000000,0.000000,4.000000,4.000000,4.000000,4.000000,4.000000,4.000000,1.000000,4.000000,4.000000,4.000000,2.000000,25.000000
1602279039.935350,37.000000,0.000000,3880.000000,4602.051270,4161.025879,4241.025879,3930.256348,4616.922852,3959.487061,3882.051270,4297.948730,3950.256348,4200.000000,4116.922852,4090.769287,3957.948730,0.000000,4.000000,,,,0.000000,4.000000,4.000000,0.000000,4.000000,4.000000,4.000000,4.000000,4.000000,4.000000,1.000000,4.000000,4.000000,4.000000,2.000000,25.000000
1602279039.943178,38.000000,0.000000,3889.230713,4603.077148,4159.487305,4246.153809,3836.923096,4599.487305,3945.641113,3871.794922,4283.589844,3948.205078,4200.512695,4113.846191,4078.974365,3958.461426,0.000000,4.000000,,,,0.000000,4.000000,4.000000,0.000000,4.000000,4.000000,4.000000,4.000000,4.000000,4.000000,1.000000,4.000000,4.000000,4.000000,2.000000,25.000000
1602279039.951105,39.000000,0.000000,3894.871826,4605.128418,4160.512695,4250.769043,3883.076904,4594.871582,3946.666748,3861.538574,4270.256348,3943.076904,4190.769043,4122.563965,4063.076904,3961.538574,0.000000,4.000000,,,,0.000000,4.000000,4.000000,0.000000,4.000000,4.000000,4.000000,4.000000,4.000000,4.000000,1.000000,4.000000,4.000000,4.000000,2.000000,25.000000
1602279039.958933,40.000000,0.000000,3897.948730,4619.487305,4158.974121,4250.256348,3945.641113,4627.179688,3965.128174,3875.897461,4278.461426,3944.102539,4186.666504,4125.641113,4067.179443,3961.538574,0.000000,4.000000,,,,0.000000,4.000000,4.000000,0.000000,4.000000,4.000000,4.000000,4.000000,4.000000,4.000000,1.000000,4.000000,4.000000,4.000000,2.000000,25.000000
1602279039.966860,41.000000,0.000000,3892.307617,4614.871582,4159.487305,4240.000000,3798.461426,4641.025879,3966.666748,3880.512939,4278.461426,3943.589844,4185.641113,4115.384766,4068.205078,3958.974365,0.000000,4.000000,,,,0.000000,4.000000,4.000000,0.000000,4.000000,4.000000,4.000000,4.000000,4.000000,4.000000,1.000000,4.000000,4.000000,4.000000,2.000000,25.000000
1602279039.974687,42.000000,0.000000,3884.615479,4589.743652,4158.461426,4237.948730,4446.666504,4612.307617,3954.358887,3858.461426,4266.153809,3938.461426,4177.436035,4109.230957,4060.000000,3953.333252,0.000000,4.000000,,,,0.000000,4.000000,4.000000,0.000000,4.000000,4.000000,4.000000,4.000000,4.000000,4.000000,1.000000,4.000000,4.000000,4.000000,2.000000,25.000000
1602279039.982414,43.000000,0.000000,3885.128174,4612.307617,4158.974121,4237.948730,6359.487305,4595.384766,3958.461426,3857.948730,4267.692383,3938.461426,4176.922852,4108.717773,4049.230713,3950.256348,0.000000,4.000000,,,,0.000000,4.000000,4.000000,0.000000,4.000000,4.000000,4.000000,4.000000,4.000000,4.000000,1.000000,4.000000,4.000000,4.000000,2.000000,25.000000
1602279039.990241,44.000000,0.000000,3886.153809,4692.307617,4160.000000,4233.846191,7795.897461,4603.077148,3960.000000,3874.358887,4275.384766,3940.512939,4181.538574,4105.128418,4037.435791,3952.307617,0.000000,4.000000,,,,0.000000,4.000000,4.000000,0.000000,4.000000,4.000000,4.000000,4.000000,4.000000,4.000000,1.000000,4.000000,4.000000,4.000000,2.000000,25.000000
1602279039.997968,45.000000,0.000000,3881.538574,4744.102539,4162.563965,4237.436035,7842.051270,4602.051270,3945.641113,3872.307617,4268.717773,3941.538574,4172.307617,4103.077148,4039.487061,3953.333252,0.000000,4.000000,,,,0.000000,4.000000,4.000000,0.000000,4.000000,4.000000,4.000000,4.000000,4.000000,4.000000,1.000000,4.000000,4.000000,4.000000,2.000000,25.000000
1602279040.005795,46.000000,0.000000,3882.564209,4742.051270,4161.025879,4252.307617,7696.922852,4600.512695,3949.743652,3867.179443,4268.717773,3941.538574,4169.230957,4110.256348,4057.948730,3953.846191,0.000000,4.000000,,,,0.000000,4.000000,4.000000,0.000000,4.000000,4.000000,4.000000,4.000000,4.000000,4.000000,1.000000,4.000000,4.000000,4.000000,2.000000,25.000000
1602279040.013521,47.000000,0.000000,3892.307617,4736.922852,4158.974121,4255.384766,7863.077148,4614.871582,3969.230713,3880.000000,4287.692383,3944.615479,4184.615234,4120.512695,4075.897461,3958.461426,0.000000,4.000000,,,,0.000000,4.000000,4.000000,0.000000,4.000000,4.000000,4.000000,4.000000,4.000000,4.000000,1.000000,4.000000,4.000000,4.000000,2.000000,25.000000
1602279040.021347,48.000000,0.000000,3899.487061,4738.461426,4160.512695,4250.256348,7828.205078,4619.487305,3971.794922,3886.666748,4293.333496,3951.281982,4197.436035,4125.128418,4075.384521,3961.025635,0.000000,4.000000,,,,0.000000,4.000000,4.000000,0.000000,4.000000,4.000000,4.000000,4.000000,4.000000,4.000000,1.000000,4.000000,4.000000,4.000000,2.000000,25.000000
1602279040.029074,49.000000,0.000000,3894.871826,4732.307617,4160.000000,4245.128418,7710.769043,4596.922852,3949.230713,3871.794922,4273.333496,3948.205078,4197.436035,4120.000000,4057.435791,3957.948730,0.000000,4.000000,,,,0.000000,4.000000,4.000000,0.000000,4.000000,4.000000,4.000000,4.000000,4.000000,4.000000,1.000000,4.000000,4.000000,4.000000,2.000000,25.000000
1602279040.036900,50.000000,0.000000,3896.923096,4739.487305,4162.563965,4249.743652,7707.179688,4595.897461,3943.589844,3866.153809,4272.820313,3944.615479,4200.000000,4124.102539,4061.538574,3965.641113,0.000000,4.000000,,,,0.000000,4.000000,4.000000,0.000000,4.000000,4.000000,4.000000,4.000000,4.000000,4.000000,1.000000,4.000000,4.000000,4.000000,2.000000,25.000000
1602279040.044626,51.000000,0.000000,3908.718018,4753.846191,4164.615234,4265.641113,7690.256348,4619.487305,3960.000000,3880.000000,4297.948730,3952.820557,4203.589844,4134.358887,4092.820557,3971.794922,0.000000,4.000000,,,,0.000000,4.000000,4.000000,0.000000,4.000000,4.000000,4.000000,4.000000,4.000000,4.000000,1.000000,4.000000,4.000000,4.000000,2.000000,25.000000
1602279040.052452,52.000000,0.000000,3903.076904,4749.230957,4163.077148,4262.563965,7669.743652,4613.333496,3965.128174,3884.615479,4296.410156,3951.281982,4191.794922,4126.666504,4090.769287,3962.051270,0.000000,4.000000,,,,0.000000,4.000000,4.000000,0.000000,4.000000,4.000000,4.000000,4.000000,4.000000,4.000000,1.000000,4.000000,4.000000,4.000000,2.000000,25.000000
1602279040.060178,53.000000,0.000000,3889.230713,4730.769043,4160.000000,4245.641113,7649.743652,4598.461426,3958.974365,3877.948730,4278.461426,3940.512939,4180.000000,4114.358887,4054.871826,3952.307617,0.000000,4.000000,,,,0.000000,4.000000,4.000000,0.000000,4.000000,4.000000,4.000000,4.000000,4.000000,4.000000,1.000000,4.000000,4.000000,4.000000,2.000000,25.000000
1602279040.068004,54.000000,0.000000,3892.820557,4720.512695,4160.512695,4245.128418,7628.717773,4617.436035,3963.589844,3880.000000,4282.051270,3945.641113,4184.615234,4122.051270,4046.666748,3954.358887,0.000000,4.000000,,,,0.000000,4.000000,4.000000,0.000000,4.000000,4.000000,4.000000,4.000000,4.000000,4.000000,1.000000,4.000000,4.000000,4.000000,2.000000,25.000000
1602279040.075729,55.000000,0.000000,3892.307617,4728.205078,4158.461426,4250.256348,7615.384766,4626.153809,3970.769287,3882.051270,4285.641113,3954.871826,4189.230957,4129.743652,4068.718018,3955.897461,0.000000,4.000000,,,,0.000000,4.000000,4.000000,0.000000,4.000000,4.000000,4.000000,4.000000,4.000000,4.000000,1.000000,4.000000,4.000000,4.000000,2.000000,25.000000
1602279040.083555,56.000000,0.000000,3880.000000,4733.333496,4159.487305,4245.128418,7600.000000,4600.512695,3962.564209,3871.794922,4268.205078,3949.230713,4185.128418,4122.051270,4075.897461,3953.846191,0.000000,4.000000,,,,0.000000,4.000000,4.000000,0.000000,4.000000,4.000000,4.000000,4.000000,4.000000,4.000000,1.000000,4.000000,4.000000,4.000000,2.000000,25.000000
1602279040.091280,57.000000,0.000000,3881.538574,4723.077148,4162.563965,4247.692383,7579.487305,4604.615234,3961.538574,3871.281982,4268.205078,3944.102539,4185.128418,4121.025879,4061.538574,3956.923096,0.000000,4.000000,,,,0.000000,4.000000,4.000000,0.000000,4.000000,4.000000,4.000000,4.000000,4.000000,4.000000,1.000000,4.000000,4.000000,4.000000,2.000000,25.000000
1602279040.099208,58.000000,0.000000,3888.718018,4718.974121,4163.077148,4256.410156,7551.282227,4628.205078,3967.692383,3880.512939,4286.666504,3945.641113,4187.692383,4126.666504,4053.333252,3959.487061,0.000000,4.000000,,,,0.000000,4.000000,4.000000,0.000000,4.000000,4.000000,4.000000,4.000000,4.000000,4.000000,1.000000,4.000000,4.000000,4.000000,2.000000,25.000000
1602279040.107036,59.000000,0.000000,3889.230713,4723.077148,4157.948730,4251.282227,7518.461426,4616.410156,3961.538574,3880.000000,4283.589844,3946.153809,4187.692383,4122.051270,4066.666748,3956.923096,0.000000,4.000000,,,,0.000000,4.000000,4.000000,0.000000,4.000000,4.000000,4.000000,4.000000,4.000000,4.000000,1.000000,4.000000,4.000000,4.000000,2.000000,25.000000
1602279040.114964,60.000000,0.000000,3895.384521,4719.487305,4157.948730,4244.102539,7484.102539,4596.922852,3956.923096,3876.410156,4273.846191,3945.641113,4189.230957,4116.410156,4074.358887,3957.948730,0.000000,4.000000,,,,0.000000,4.000000,4.000000,0.000000,4.000000,4.000000,4.000000,4.000000,4.000000,4.000000,1.000000,4.000000,4.000000,4.000000,2.000000,25.000000
1602279040.122792,61.000000,0.000000,3902.051270,4722.563965,4160.512695,4249.230957,7459.487305,4610.256348,3966.153809,3881.538574,4282.051270,3947.692383,4192.820313,4118.461426,4064.615479,3961.538574,0.000000,4.000000,,,,0.000000,4.000000,4.000000,0.000000,4.000000,4.000000,4.000000,4.000000,4.000000,4.000000,1.000000,4.000000,4.000000,4.000000,2.000000,25.000000
1602279040.130719,62.000000,0.000000,3892.820557,4723.589844,4160.000000,4249.230957,7427.179688,4617.948730,3967.179443,3882.564209,4286.153809,3950.256348,4193.333496,4116.410156,4056.923096,3958.974365,0.000000,4.000000,,,,0.000000,4.000000,4.000000,0.000000,4.000000,4.000000,4.000000,4.000000,4.000000,4.000000,1.000000,4.000000,4.000000,4.000000,2.000000,25.000000
1602279040.138547,63.000000,0.000000,3878.461426,4709.743652,4158.974121,4234.358887,7375.384766,4598.974121,3953.333252,3879.487061,4278.974121,3946.666748,4185.641113,4110.256348,4061.538574,3950.769287,0.000000,4.000000,,,,0.000000,4.000000,4.000000,0.000000,4.000000,4.000000,4.000000,4.000000,4.000000,4.000000,1.000000,4.000000,4.000000,4.000000,2.000000,25.000000
1602279040.146474,64.000000,0.000000,3871.281982,4704.102539,4158.461426,4230.769043,7339.487305,4602.051270,3960.512939,3884.102539,4286.666504,3943.589844,4180.000000,4106.153809,4062.564209,3946.153809,0.000000,4.000000,,,,0.000000,4.000000,4.000000,0.000000,4.000000,4.000000,4.000000,4.000000,4.000000,4.000000,1.000000,4.000000,4.000000,4.000000,2.000000,25.000000
1602279040.154301,65.000000,0.000000,3869.230713,4713.333496,4158.974121,4240.512695,7328.205078,4623.589844,3977.435791,3886.666748,4292.820313,3952.307617,4190.769043,4110.256348,4062.564209,3950.256348,419.000000,4.000000,,,,0.000000,4.000000,4.000000,0.000000,4.000000,4.000000,4.000000,4.000000,4.000000,4.000000,1.000000,4.000000,4.000000,4.000000,2.000000,25.000000
1602279040.162028,66.000000,0.000000,3874.358887,4712.307617,4160.512695,4240.000000,7303.589844,4623.077148,3968.718018,3881.538574,4283.077148,3958.974365,4201.538574,4115.897461,4065.641113,3952.820557,386.000000,4.000000,,,,0.000000,4.000000,4.000000,0.000000,4.000000,4.000000,4.000000,4.000000,4.000000,4.000000,1.000000,4.000000,4.000000,4.000000,2.000000,25.000000
1602279040.169855,67.000000,0.000000,3878.461426,4702.051270,4161.538574,4230.256348,7266.666504,4611.794922,3953.846191,3877.435791,4277.948730,3948.205078,4196.410156,4112.820313,4055.897461,3950.256348,446.000000,4.000000,,,,0.000000,4.000000,4.000000,0.000000,4.000000,4.000000,4.000000,4.000000,4.000000,4.000000,1.000000,4.000000,4.000000,4.000000,2.000000,25.000000
1602279040.177582,68.000000,0.000000,3881.025635,4703.589844,4158.461426,4230.769043,7248.205078,4617.948730,3969.230713,3881.025635,4281.538574,3946.666748,4205.128418,4118.461426,4058.461426,3952.820557,354.000000,4.000000,,,,0.000000,4.000000,4.000000,0.000000,4.000000,2.000000,4.000000,4.000000,4.000000,4.000000,1.000000,4.000000,4.000000,4.000000,2.000000,25.000000
1602279040.185408,69.000000,0.000000,3888.718018,4703.077148,4160.512695,4235.897461,7230.256348,4617.948730,3980.512939,3877.948730,4274.871582,3957.948730,4219.487305,4131.282227,4080.512939,3961.025635,411.000000,4.000000,,,,0.000000,4.000000,4.000000,0.000000,4.000000,2.000000,4.000000,4.000000,4.000000,4.000000,1.000000,4.000000,4.000000,4.000000,2.000000,25.000000
1602279040.193135,70.000000,0.000000,3887.692383,4693.333496,4161.025879,4228.717773,7195.384766,4600.000000,3958.974365,3869.230713,4267.179688,3950.769287,4207.692383,4126.153809,4074.871826,3961.025635,470.000000,4.000000,,,,0.000000,4.000000,4.000000,0.000000,4.000000,2.000000,4.000000,4.000000,4.000000,4.000000,1.000000,4.000000,4.000000,4.000000,2.000000,25.000000
1602279040.200962,71.000000,0.000000,3881.538574,4690.256348,4161.538574,4222.563965,7161.538574,4595.897461,3949.230713,3873.846191,4276.922852,3943.076904,4191.794922,4118.974121,4045.128174,3961.538574,393.000000,4.000000,,,,0.000000,4.000000,4.000000,0.000000,4.000000,2.000000,4.000000,4.000000,4.000000,4.000000,1.000000,4.000000,4.000000,4.000000,2.000000,25.000000
1602279040.208688,72.000000,0.000000,3882.051270,4701.025879,4161.538574,4234.871582,7132.820313,4607.692383,3966.666748,3882.051270,4289.230957,3952.820557,4202.563965,4124.615234,4048.718018,3963.589844,418.000000,4.000000,,,,0.000000,4.000000,4.000000,0.000000,4.000000,2.000000,4.000000,4.000000,4.000000,4.000000,1.000000,4.000000,4.000000,4.000000,2.000000,25.000000
1602279040.216514,73.000000,0.000000,3882.564209,4705.641113,4159.487305,4243.077148,7105.128418,4611.282227,3971.281982,3877.435791,4288.717773,3955.384521,4211.282227,4118.461426,4069.743652,3955.897461,52.000000,4.000000,,,,0.000000,4.000000,4.000000,0.000000,4.000000,2.000000,4.000000,4.000000,4.000000,4.000000,1.000000,4.000000,4.000000,4.000000,2.000000,25.000000
1602279040.224240,74.000000,0.000000,3869.230713,4694.358887,4156.922852,4223.077148,7092.307617,4593.846191,3948.718018,3863.076904,4271.282227,3945.641113,4187.692383,4097.948730,4052.820557,3944.102539,447.000000,4.000000,,,,0.000000,4.000000,4.000000,0.000000,4.000000,2.000000,4.000000,4.000000,4.000000,4.000000,1.000000,4.000000,4.000000,4.000000,2.000000,25.000000
1602279040.232066,75.000000,0.000000,3865.641113,4675.897461,4160.512695,4209.743652,7082.563965,4574.871582,3932.820557,3848.718018,4251.282227,3945.641113,4163.589844,4092.307617,4025.641113,3945.128174,238.000000,4.000000,,,,0.000000,4.000000,4.000000,0.000000,4.000000,2.000000,4.000000,4.000000,4.000000,4.000000,1.000000,4.000000,4.000000,4.000000,2.000000,25.000000
1602279040.239792,76.000000,0.000000,3880.512939,4663.077148,4164.102539,4228.205078,7038.974121,4589.743652,3949.743652,3848.205078,4254.871582,3947.179443,4169.743652,4097.436035,4025.128174,3951.281982,426.000000,4.000000,,,,0.000000,4.000000,4.000000,0.000000,4.000000,2.000000,4.000000,4.000000,4.000000,4.000000,1.000000,4.000000,4.000000,4.000000,2.000000,25.000000
1602279040.247618,77.000000,0.000000,3888.718018,4685.128418,4162.563965,4241.025879,6981.025879,4617.436035,3971.281982,3859.487061,4270.256348,3942.051270,4185.128418,4097.948730,4047.179443,3950.256348,356.000000,4.000000,,,,0.000000,4.000000,4.000000,0.000000,4.000000,2.000000,4.000000,4.000000,4.000000,4.000000,1.000000,4.000000,4.000000,4.000000,2.000000,25.000000
1602279040.255343,78.000000,0.000000,3884.615479,4711.794922,4158.974121,4229.743652,6964.102539,4611.282227,3962.051270,3862.051270,4269.230957,3941.538574,4183.589844,4095.897461,4065.641113,3949.743652,447.000000,4.000000,,,,0.000000,4.000000,4.000000,0.000000,4.000000,2.000000,4.000000,4.000000,4.000000,4.000000,1.000000,4.000000,4.000000,4.000000,2.000000,25.000000
1602279040.263271,79.000000,0.000000,3883.076904,4693.333496,4158.974121,4225.128418,6972.307617,4593.333496,3949.230713,3867.179443,4268.205078,3945.641113,4178.461426,4098.461426,4053.333252,3956.923096,238.000000,4.000000,,,,0.000000,4.000000,4.000000,0.000000,4.000000,2.000000,4.000000,4.000000,4.000000,4.000000,1.000000,4.000000,4.000000,4.000000,2.000000,25.000000
1602279040.271099,80.000000,0.000000,3888.718018,4676.410156,4161.025879,4235.897461,6947.179688,4602.051270,3960.512939,3883.076904,4282.563965,3952.820557,4189.230957,4108.205078,4038.461426,3963.076904,426.000000,4.000000,,,,0.000000,4.000000,4.000000,0.000000,4.000000,2.000000,4.000000,4.000000,4.000000,4.000000,1.000000,4.000000,4.000000,4.000000,2.000000,25.000000
1602279040.279027,81.000000,0.000000,3882.564209,4696.922852,4160.512695,4237.436035,6909.743652,4604.102539,3955.897461,3878.461426,4287.179688,3956.923096,4197.948730,4113.846191,4061.025635,3957.948730,356.000000,4.000000,,,,0.000000,4.000000,4.000000,0.000000,4.000000,2.000000,4.000000,4.000000,4.000000,4.000000,1.000000,4.000000,4.000000,4.000000,2.000000,25.000000
1602279040.286855,82.000000,0.000000,3877.435791,4707.692383,4160.000000,4230.769043,6907.692383,4600.000000,3942.051270,3869.230713,4284.615234,3956.410156,4205.128418,4115.897461,4091.281982,3956.410156,447.000000,4.000000,,,,0.000000,4.000000,4.000000,0.000000,4.000000,2.000000,4.000000,4.000000,4.000000,4.000000,1.000000,4.000000,4.000000,4.000000,2.000000,25.000000
1602279040.294783,83.000000,0.000000,3882.564209,4688.205078,4161.538574,4228.717773,6906.666504,4609.230957,3957.435791,3878.461426,4289.230957,3956.410156,4208.717773,4118.461426,4076.923096,3961.025635,238.000000,4.000000,,,,0.000000,4.000000,4.000000,0.000000,4.000000,2.000000,4.000000,4.000000,4.000000,4.000000,1.000000,4.000000,4.000000,4.000000,2.000000,25.000000
1602279040.302611,84.000000,0.000000,3883.589844,4670.769043,4162.051270,4231.282227,6875.384766,4607.179688,3971.281982,3876.410156,4284.615234,3957.435791,4198.461426,4117.436035,4044.615479,3962.051270,426.000000,4.000000,,,,0.000000,4.000000,4.000000,0.000000,4.000000,2.000000,4.000000,4.000000,4.000000,4.000000,1.000000,4.000000,4.000000,4.000000,2.000000,25.000000
1602279040.310538,85.000000,0.000000,3883.589844,4672.820313,4158.461426,4239.487305,6853.846191,4598.974121,3961.538574,3868.205078,4276.410156,3956.410156,4193.846191,4114.871582,4048.718018,3957.948730,356.000000,4.000000,,,,0.000000,4.000000,4.000000,0.000000,4.000000,2.000000,4.000000,4.000000,4.000000,4.000000,1.000000,4.000000,4.000000,4.000000,2.000000,25.000000
1602279040.318365,86.000000,0.000000,3889.230713,4685.641113,4161.025879,4241.538574,6848.717773,4595.897461,3949.230713,3870.256348,4273.333496,3950.256348,4195.384766,4112.307617,4065.128174,3956.410156,447.000000,4.000000,,,,0.000000,4.000000,4.000000,0.000000,4.000000,2.000000,4.000000,4.000000,4.000000,4.000000,1.000000,4.000000,4.000000,4.000000,2.000000,25.000000
1602279040.326292,87.000000,0.000000,3885.128174,4691.794922,4161.538574,4234.358887,6834.358887,4584.615234,3942.564209,3863.076904,4267.692383,3945.128174,4181.538574,4106.153809,4053.846191,3953.846191,238.000000,4.000000,,,,0.000000,4.000000,4.000000,0.000000,4.000000,2.000000,4.000000,4.000000,4.000000,4.000000,1.000000,4.000000,4.000000,4.000000,2.000000,25.000000
1602279040.334120,88.000000,0.000000,3879.487061,4685.128418,4158.974121,4232.820313,6820.512695,4589.743652,3953.333252,3862.051270,4272.307617,3948.205078,4177.436035,4109.743652,4037.948730,3956.923096,426.000000,4.000000,,,,0.000000,4.000000,4.000000,0.000000,4.000000,2.000000,4.000000,4.000000,4.000000,4.000000,1.000000,4.000000,4.000000,4.000000,2.000000,25.000000
1602279040.342047,89.000000,0.000000,3887.179443,4677.436035,4158.974121,4235.897461,6802.563965,4611.794922,3972.307617,3883.076904,4289.743652,3953.846191,4195.384766,4123.589844,4048.718018,3963.076904,356.000000,4.000000,,,,0.000000,4.000000,4.000000,0.000000,4.000000,2.000000,4.000000,4.000000,4.000000,4.000000,1.000000,4.000000,4.000000,4.000000,2.000000,25.000000
1602279040.349874,90.000000,0.000000,3887.692383,4677.948730,4163.589844,4232.820313,6771.794922,4602.051270,3956.923096,3877.948730,4284.102539,3954.871826,4194.871582,4120.512695,4062.564209,3963.589844,447.000000,4.000000,,,,0.000000,4.000000,4.000000,0.000000,4.000000,2.000000,4.000000,4.000000,4.000000,4.000000,1.000000,4.000000,4.000000,4.000000,2.000000,25.000000
1602279040.357600,91.000000,0.000000,3877.435791,4674.358887,4161.538574,4231.282227,6763.077148,4586.666504,3944.102539,3861.538574,4273.846191,3953.846191,4183.589844,4107.692383,4051.794922,3956.923096,238.000000,4.000000,,,,0.000000,4.000000,4.000000,0.000000,4.000000,2.000000,4.000000,4.000000,4.000000,4.000000,1.000000,4.000000,4.000000,4.000000,2.000000,25.000000
1602279040.365427,92.000000,0.000000,3877.948730,4672.820313,4161.025879,4236.922852,6772.307617,4601.538574,3960.000000,3875.384521,4285.641113,3955.897461,4187.179688,4107.179688,4035.384521,3952.820557,426.000000,4.000000,,,,0.000000,4.000000,4.000000,0.000000,4.000000,2.000000,4.000000,4.000000,4.000000,4.000000,1.000000,4.000000,4.000000,4.000000,2.000000,25.000000
1602279040.373153,93.000000,0.000000,3880.512939,4681.538574,4162.563965,4231.282227,6750.769043,4604.102539,3949.230713,3876.923096,4286.666504,3955.384521,4185.641113,4105.128418,4041.025635,3952.820557,356.000000,4.000000,,,,0.000000,4.000000,4.000000,0.000000,4.000000,2.000000,4.000000,4.000000,4.000000,4.000000,1.000000,4.000000,4.000000,4.000000,2.000000,25.000000
1602279040.380980,94.000000,0.000000,3879.487061,4688.205078,4158.974121,4225.128418,6703.077148,4591.794922,3933.846191,3864.615479,4276.410156,3953.333252,4183.589844,4101.025879,4070.256348,3955.897461,447.000000,4.000000,,,,0.000000,4.000000,4.000000,0.000000,4.000000,2.000000,4.000000,4.000000,4.000000,4.000000,1.000000,4.000000,4.000000,4.000000,2.000000,25.000000
1602279040.388706,95.000000,0.000000,3888.718018,4692.307617,4158.461426,4237.436035,6692.307617,4602.051270,3961.538574,3883.076904,4293.846191,3954.358887,4202.563965,4112.307617,4094.358887,3961.538574,238.000000,4.000000,,,,0.000000,4.000000,4.000000,0.000000,4.000000,2.000000,4.000000,4.000000,4.000000,4.000000,1.000000,4.000000,4.000000,4.000000,2.000000,25.000000
1602279040.396532,96.000000,0.000000,3894.871826,4694.358887,4162.051270,4253.333496,6714.358887,4618.461426,3981.538574,3896.923096,4314.358887,3958.461426,4218.461426,4126.153809,4088.718018,3965.641113,426.000000,4.000000,,,,0.000000,4.000000,4.000000,0.000000,4.000000,2.000000,4.000000,4.000000,4.000000,4.000000,1.000000,4.000000,4.000000,4.000000,2.000000,25.000000
1602279040.404258,97.000000,0.000000,3890.769287,4689.743652,4161.538574,4249.743652,6694.358887,4610.256348,3958.461426,3882.051270,4297.436035,3958.461426,4208.205078,4129.230957,4077.435791,3965.641113,356.000000,4.000000,,,,0.000000,4.000000,4.000000,0.000000,4.000000,2.000000,4.000000,4.000000,4.000000,4.000000,1.000000,4.000000,4.000000,4.000000,2.000000,25.000000
1602279040.412084,98.000000,0.000000,3887.692383,4685.641113,4158.974121,4235.897461,6631.282227,4594.358887,3948.718018,3871.281982,4275.897461,3954.358887,4198.974121,4128.205078,4080.512939,3963.589844,447.000000,4.000000,,,,0.000000,4.000000,4.000000,0.000000,4.000000,2.000000,4.000000,4.000000,4.000000,4.000000,1.000000,4.000000,4.000000,4.000000,2.000000,25.000000
1602279040.419809,99.000000,0.000000,3885.641113,4686.666504,4159.487305,4231.794922,6613.846191,4592.820313,3961.538574,3873.846191,4278.974121,3954.871826,4202.051270,4123.077148,4077.948730,3964.102539,238.000000,4.000000,,,,0.000000,4.000000,4.000000,0.000000,4.000000,2.000000,4.000000,4.000000,4.000000,4.000000,1.000000,4.000000,4.000000,4.000000,2.000000,25.000000
1602279040.427635,100.000000,0.000000,3889.743652,4683.077148,4157.436035,4241.025879,6636.922852,4601.538574,3954.871826,3872.307617,4281.538574,3956.923096,4198.974121,4116.922852,4065.128174,3962.051270,426.000000,4.000000,,,,0.000000,4.000000,4.000000,0.000000,4.000000,2.000000,4.000000,4.000000,4.000000,4.000000,1.000000,4.000000,4.000000,4.000000,2.000000,25.000000
1602279040.435361,101.000000,0.000000,3897.948730,4688.205078,4158.974121,4259.487305,6615.384766,4606.153809,3942.051270,3869.743652,4274.871582,3952.307617,4188.205078,4114.358887,4056.410156,3956.923096,356.000000,4.000000,,,,0.000000,4.000000,4.000000,0.000000,4.000000,2.000000,4.000000,4.000000,4.000000,4.000000,1.000000,4.000000,4.000000,4.000000,2.000000,25.000000
1602279040.443186,102.000000,0.000000,3889.743652,4691.282227,4162.051270,4258.974121,6564.615234,4601.538574,3948.205078,3862.051270,4271.794922,3947.692383,4182.051270,4109.743652,4052.307617,3952.307617,447.000000,4.000000,,,,0.000000,4.000000,4.000000,0.000000,4.000000,2.000000,4.000000,4.000000,4.000000,4.000000,1.000000,4.000000,4.000000,4.000000,2.000000,25.000000
1602279040.450912,103.000000,0.000000,3876.410156,4674.358887,4163.589844,4234.358887,6540.000000,4594.871582,3960.512939,3858.461426,4274.871582,3949.743652,4181.538574,4108.717773,4052.820557,3954.871826,238.000000,4.000000,,,,0.000000,4.000000,4.000000,0.000000,4.000000,2.000000,4.000000,4.000000,4.000000,4.000000,1.000000,4.000000,4.000000,4.000000,2.000000,25.000000
1602279040.458839,104.000000,0.000000,3883.589844,4674.871582,4158.974121,4232.307617,6532.307617,4594.871582,3966.153809,3871.281982,4280.512695,3954.358887,4191.282227,4120.512695,4075.384521,3961.538574,426.000000,4.000000,,,,0.000000,4.000000,4.000000,0.000000,4.000000,2.000000,4.000000,4.000000,4.000000,4.000000,1.000000,4.000000,4.000000,4.000000,2.000000,25.000000
1602279040.466667,105.000000,0.000000,3894.871826,4684.615234,4158.461426,4249.230957,6524.615234,4601.538574,3973.333252,3877.948730,4282.051270,3956.923096,4206.153809,4129.743652,4089.743652,3965.128174,356.000000,4.000000,,,,0.000000,4.000000,4.000000,0.000000,4.000000,2.000000,4.000000,4.000000,4.000000,4.000000,1.000000,4.000000,4.000000,4.000000,2.000000,25.000000
1602279040.474595,106.000000,0.000000,3892.307617,4666.153809,4160.512695,4248.205078,6514.358887,4602.563965,3973.333252,3873.333252,4280.000000,3957.948730,4203.589844,4124.102539,4075.384521,3961.025635,447.000000,4.000000,,,,0.000000,4.000000,4.000000,0.000000,4.000000,2.000000,4.000000,4.000000,4.000000,4.000000,1.000000,4.000000,4.000000,4.000000,2.000000,25.000000
1602279040.482423,107.000000,0.000000,3889.743652,4657.436035,4161.025879,4238.974121,6503.589844,4600.000000,3962.051270,3874.871826,4284.102539,3958.974365,4200.000000,4122.563965,4072.820557,3962.564209,238.000000,4.000000,,,,0.000000,4.000000,4.000000,0.000000,4.000000,2.000000,4.000000,4.000000,4.000000,4.000000,1.000000,4.000000,4.000000,4.000000,2.000000,25.000000
1602279040.490350,108.000000,0.000000,3892.820557,4677.948730,4159.487305,4243.077148,6492.307617,4602.051270,3964.102539,3879.487061,4296.922852,3962.564209,4216.410156,4135.897461,4082.564209,3970.769287,426.000000,4.000000,,,,0.000000,4.000000,4.000000,0.000000,4.000000,2.000000,4.000000,4.000000,4.000000,4.000000,1.000000,4.000000,4.000000,4.000000,2.000000,25.000000
1602279040.498178,109.000000,0.000000,3897.435791,4680.000000,4161.538574,4247.692383,6472.820313,4602.563965,3972.820557,3879.487061,4300.000000,3966.666748,4222.563965,4143.589844,4078.461426,3973.846191,356.000000,4.000000,,,,0.000000,4.000000,4.000000,0.000000,4.000000,2.000000,4.000000,4.000000,4.000000,4.000000,1.000000,4.000000,4.000000,4.000000,2.000000,25.000000
1602279040.506105,110.000000,0.000000,3898.974365,4669.230957,4161.538574,4249.743652,6455.897461,4601.538574,3974.358887,3884.102539,4295.897461,3966.153809,4212.820313,4138.974121,4082.564209,3971.794922,447.000000,4.000000,,,,0.000000,4.000000,4.000000,0.000000,4.000000,2.000000,4.000000,4.000000,4.000000,4.000000,1.000000,4.000000,4.000000,4.000000,2.000000,25.000000
1602279040.513932,111.000000,0.000000,3898.974365,4682.563965,4158.974121,4248.717773,6448.717773,4614.871582,3975.897461,3891.794922,4301.025879,3963.589844,4214.358887,4136.922852,4100.000000,3972.820557,238.000000,4.000000,,,,0.000000,4.000000,4.000000,0.000000,4.000000,2.000000,4.000000,4.000000,4.000000,4.000000,1.000000,4.000000,4.000000,4.000000,2.000000,25.000000
1602279040.521859,112.000000,0.000000,3896.410156,4693.333496,4159.487305,4242.563965,6432.820313,4621.538574,3975.897461,3891.281982,4302.051270,3959.487061,4214.358887,4132.307617,4097.948730,3967.692383,426.000000,4.000000,,,,0.000000,4.000000,4.000000,0.000000,4.000000,2.000000,4.000000,4.000000,4.000000,4.000000,1.000000,4.000000,4.000000,4.000000,2.000000,25.000000
1602279040.529686,113.000000,0.000000,3889.743652,4689.230957,4159.487305,4247.179688,6409.743652,4608.205078,3973.846191,3887.179443,4293.333496,3961.538574,4203.589844,4124.102539,4087.179443,3959.487061,356.000000,4.000000,,,,0.000000,4.000000,4.000000,0.000000,4.000000,2.000000,4.000000,4.000000,4.000000,4.000000,1.000000,4.000000,4.000000,4.000000,2.000000,25.000000
1602279040.537513,114.000000,0.000000,3885.641113,4677.436035,4158.974121,4253.846191,6397.948730,4593.846191,3965.128174,3881.538574,4291.282227,3965.641113,4198.461426,4119.487305,4079.487061,3960.000000,447.000000,4.000000,,,,0.000000,4.000000,4.000000,0.000000,4.000000,2.000000,4.000000,4.000000,4.000000,4.000000,1.000000,4.000000,4.000000,4.000000,2.000000,25.000000
1602279040.545340,115.000000,0.000000,3886.666748,4657.436035,4159.487305,4244.102539,6383.589844,4594.358887,3955.897461,3876.923096,4292.820313,3962.051270,4196.922852,4117.948730,4062.051270,3960.512939,238.000000,4.000000,,,,0.000000,4.000000,4.000000,0.000000,4.000000,2.000000,4.000000,4.000000,4.000000,4.000000,1.000000,4.000000,4.000000,4.000000,2.000000,25.000000
1602279040.553066,116.000000,0.000000,3892.820557,4656.922852,4161.538574,4232.820313,6364.102539,4606.153809,3963.589844,3879.487061,4287.692383,3960.512939,4202.051270,4121.538574,4062.051270,3962.051270,426.000000,4.000000,,,,0.000000,4.000000,4.000000,0.000000,4.000000,2.000000,4.000000,4.000000,4.000000,4.000000,1.000000,4.000000,4.000000,4.000000,2.000000,25.000000
1602279040.560893,117.000000,0.000000,3896.923096,4683.077148,4161.538574,4232.307617,6349.230957,4614.871582,3976.923096,3883.076904,4289.743652,3963.076904,4212.307617,4129.230957,4087.692383,3962.051270,356.000000,4.000000,,,,0.000000,4.000000,4.000000,0.000000,4.000000,2.000000,4.000000,4.000000,4.000000,4.000000,1.000000,4.000000,4.000000,4.000000,2.000000,25.000000
1602279040.568619,118.000000,0.000000,3899.487061,4690.769043,4160.512695,4241.025879,6326.666504,4616.410156,3974.871826,3884.615479,4303.077148,3959.487061,4207.179688,4132.307617,4095.897461,3962.051270,447.000000,4.000000,,,,0.000000,4.000000,4.000000,0.000000,4.000000,2.000000,4.000000,4.000000,4.000000,4.000000,1.000000,4.000000,4.000000,4.000000,2.000000,25.000000
1602279040.576445,119.000000,0.000000,3897.948730,4660.000000,4156.410156,4247.179688,6310.256348,4600.000000,3954.871826,3880.000000,4296.922852,3956.410156,4195.897461,4127.179688,4071.794922,3965.128174,238.000000,4.000000,,,,0.000000,4.000000,4.000000,0.000000,4.000000,2.000000,4.000000,4.000000,4.000000,4.000000,1.000000,4.000000,4.000000,4.000000,2.000000,25.000000
1602279040.584171,120.000000,0.000000,3898.461426,4650.256348,4157.948730,4248.205078,6308.717773,4582.563965,3943.076904,3869.230713,4277.948730,3962.051270,4201.025879,4123.077148,4055.897461,3967.692383,426.000000,4.000000,,,,0.000000,4.000000,4.000000,0.000000,4.000000,2.000000,4.000000,4.000000,4.000000,4.000000,1.000000,4.000000,4.000000,4.000000,2.000000,25.000000
1602279040.591997,121.000000,0.000000,3898.461426,4680.000000,4158.974121,4247.692383,6294.871582,4596.922852,3960.512939,3870.769287,4280.512695,3962.564209,4207.179688,4124.615234,4074.358887,3966.153809,356.000000,4.000000,,,,0.000000,4.000000,4.000000,0.000000,4.000000,2.000000,4.000000,4.000000,4.000000,4.000000,1.000000,4.000000,4.000000,4.000000,2.000000,25.000000
1602279040.599723,122.000000,0.000000,3896.410156,4685.128418,4158.974121,4250.256348,6272.307617,4623.077148,3980.512939,3880.000000,4295.384766,3958.974365,4203.589844,4129.230957,4094.358887,3967.179443,447.000000,4.000000,,,,0.000000,4.000000,4.000000,0.000000,4.000000,2.000000,4.000000,4.000000,4.000000,4.000000,1.000000,4.000000,4.000000,4.000000,2.000000,25.000000
1602279040.607549,123.000000,0.000000,3896.410156,4664.615234,4158.974121,4250.256348,6258.974121,4625.641113,3974.871826,3878.974365,4298.974121,3962.051270,4204.615234,4129.230957,4087.179443,3968.718018,238.000000,4.000000,,,,0.000000,4.000000,4.000000,0.000000,4.000000,2.000000,4.000000,4.000000,4.000000,4.000000,1.000000,4.000000,4.000000,4.000000,2.000000,25.000000
1602279040.615274,124.000000,0.000000,3900.000000,4673.846191,4160.000000,4249.743652,6246.153809,4609.230957,3964.102539,3877.948730,4293.333496,3967.179443,4206.153809,4124.102539,4074.358887,3967.179443,426.000000,4.000000,,,,0.000000,4.000000,4.000000,0.000000,4.000000,2.000000,4.000000,4.000000,4.000000,4.000000,1.000000,4.000000,4.000000,4.000000,2.000000,25.000000
1602279040.623202,125.000000,0.000000,3897.435791,4702.051270,4159.487305,4250.256348,6238.974121,4601.538574,3968.205078,3876.923096,4287.692383,3966.666748,4202.563965,4122.051270,4082.051270,3968.718018,356.000000,4.000000,,,,0.000000,4.000000,4.000000,0.000000,4.000000,2.000000,4.000000,4.000000,4.000000,4.000000,1.000000,4.000000,4.000000,4.000000,2.000000,25.000000
1602279040.631030,126.000000,0.000000,3895.897461,4688.717773,4158.461426,4246.666504,6236.410156,4605.128418,3974.358887,3879.487061,4290.769043,3965.128174,4202.051270,4120.000000,4089.230713,3968.718018,447.000000,4.000000,,,,0.000000,4.000000,4.000000,0.000000,4.000000,2.000000,4.000000,4.000000,4.000000,4.000000,1.000000,4.000000,4.000000,4.000000,2.000000,25.000000
1602279040.638958,127.000000,0.000000,3901.025635,4657.436035,4160.512695,4250.769043,6210.769043,4607.692383,3974.358887,3887.692383,4303.077148,3965.641113,4205.128418,4116.410156,4083.076904,3964.615479,238.000000,4.000000,,,,0.000000,4.000000,4.000000,0.000000,4.000000,2.000000,4.000000,4.000000,4.000000,4.000000,1.000000,4.000000,4.000000,4.000000,2.000000,25.000000
1602279040.646785,128.000000,0.000000,3895.384521,4663.077148,4164.102539,4259.487305,6186.666504,4604.102539,3968.718018,3885.128174,4304.102539,3963.076904,4203.077148,4115.897461,4078.461426,3965.641113,426.000000,4.000000,,,,0.000000,4.000000,4.000000,0.000000,4.000000,2.000000,4.000000,4.000000,4.000000,4.000000,1.000000,4.000000,4.000000,4.000000,2.000000,25.000000
1602279040.654713,0.000000,0.000000,3887.692383,4683.589844,4162.563965,4254.871582,6184.615234,4611.282227,3973.846191,3882.564209,4298.461426,3966.666748,4205.128418,4122.563965,4081.538574,3968.718018,0.000000,4.000000,,,,0.000000,4.000000,4.000000,0.000000,4.000000,2.000000,4.000000,4.000000,4.000000,4.000000,1.000000,4.000000,4.000000,4.000000,2.000000,25.000000
1602279040.662540,1.000000,0.000000,3893.846191,4684.615234,4156.922852,4248.205078,6170.256348,4629.743652,3993.846191,3894.358887,4308.717773,3973.333252,4215.897461,4132.307617,4087.179443,3969.743652,419.000000,4.000000,,,,0.000000,4.000000,4.000000,0.000000,4.000000,2.000000,4.000000,4.000000,4.000000,4.000000,1.000000,4.000000,4.000000,4.000000,2.000000,25.000000
1602279040.670467,2.000000,0.000000,3902.564209,4656.410156,4160.512695,4246.666504,6148.205078,4627.179688,3989.743652,3889.230713,4309.743652,3967.692383,4210.256348,4131.282227,4087.692383,3969.743652,386.000000,4.000000,,,,0.000000,4.000000,4.000000,0.000000,4.000000,2.000000,4.000000,4.000000,4.000000,4.000000,1.000000,4.000000,4.000000,4.000000,2.000000,25.000000
1602279040.678295,3.000000,0.000000,3903.589844,4643.589844,4163.077148,4246.153809,6140.000000,4609.743652,3963.076904,3871.281982,4291.282227,3963.076904,4196.922852,4123.589844,4078.461426,3966.153809,446.000000,4.000000,,,,0.000000,4.000000,4.000000,0.000000,4.000000,2.000000,4.000000,4.000000,4.000000,4.000000,1.000000,4.000000,4.000000,4.000000,2.000000,25.000000
1602279040.686222,4.000000,0.000000,3903.076904,4672.820313,4162.051270,4255.897461,6120.512695,4607.179688,3960.000000,3875.897461,4289.230957,3974.358887,4201.538574,4126.666504,4071.794922,3966.153809,411.000000,4.000000,,,,0.000000,4.000000,4.000000,0.000000,4.000000,4.000000,4.000000,4.000000,4.000000,4.000000,1.000000,4.000000,4.000000,4.000000,2.000000,25.000000
1602279040.694049,5.000000,0.000000,3896.410156,4692.307617,4161.025879,4262.563965,6091.282227,4609.230957,3967.179443,3878.461426,4291.794922,3973.333252,4199.487305,4122.051270,4070.769287,3964.615479,411.000000,4.000000,,,,0.000000,4.000000,4.000000,0.000000,4.000000,4.000000,4.000000,4.000000,4.000000,4.000000,1.000000,4.000000,4.000000,4.000000,2.000000,25.000000
1602279040.701975,6.000000,0.000000,3890.769287,4671.794922,4161.538574,4254.871582,6095.897461,4609.743652,3962.564209,3864.102539,4283.077148,3957.435791,4188.717773,4111.794922,4067.179443,3963.076904,470.000000,4.000000,,,,0.000000,4.000000,4.000000,0.000000,4.000000,4.000000,4.000000,4.000000,4.000000,4.000000,1.000000,4.000000,4.000000,4.000000,2.000000,25.000000
1602279040.709802,7.000000,0.000000,3892.820557,4661.025879,4159.487305,4256.922852,6110.769043,4611.794922,3962.051270,3867.179443,4289.230957,3959.487061,4195.897461,4117.436035,4063.589844,3961.538574,393.000000,4.000000,,,,0.000000,4.000000,4.000000,0.000000,4.000000,4.000000,4.000000,4.000000,4.000000,4.000000,1.000000,4.000000,4.000000,4.000000,2.000000,25.000000
1602279040.717529,8.000000,0.000000,3893.846191,4677.436035,4162.051270,4260.000000,6086.153809,4608.717773,3964.615479,3880.512939,4303.589844,3972.820557,4205.128418,4125.641113,4071.794922,3962.564209,416.000000,4.000000,,,,0.000000,4.000000,4.000000,0.000000,4.000000,4.000000,4.000000,4.000000,4.000000,4.000000,1.000000,4.000000,4.000000,4.000000,2.000000,25.000000
1602279040.725356,9.000000,0.000000,3899.487061,4679.487305,4163.589844,4250.256348,6053.846191,4610.256348,3967.692383,3884.615479,4304.615234,3973.333252,4203.589844,4124.615234,4092.820557,3966.666748,52.000000,4.000000,,,,0.000000,4.000000,4.000000,0.000000,4.000000,4.000000,4.000000,4.000000,4.000000,4.000000,1.000000,4.000000,4.000000,4.000000,2.000000,25.000000
1602279040.733082,10.000000,0.000000,3906.666748,4675.897461,4161.025879,4260.512695,6041.538574,4619.487305,3975.897461,3886.666748,4301.025879,3969.743652,4210.256348,4127.692383,4106.666504,3971.281982,447.000000,4.000000,,,,0.000000,4.000000,4.000000,0.000000,4.000000,4.000000,4.000000,4.000000,4.000000,4.000000,1.000000,4.000000,4.000000,4.000000,2.000000,25.000000
1602279040.740909,11.000000,0.000000,3904.102539,4682.563965,4157.436035,4276.922852,6036.410156,4622.563965,3978.974365,3885.641113,4299.487305,3971.281982,4218.974121,4132.307617,4103.589844,3971.281982,238.000000,4.000000,,,,0.000000,4.000000,4.000000,0.000000,4.000000,4.000000,4.000000,4.000000,4.000000,4.000000,1.000000,4.000000,4.000000,4.000000,2.000000,25.000000
1602279040.748635,12.000000,0.000000,3901.025635,4670.769043,4158.974121,4264.102539,6032.307617,4613.333496,3966.666748,3873.846191,4296.410156,3972.307617,4213.333496,4126.153809,4086.153809,3970.256348,426.000000,4.000000,,,,0.000000,4.000000,4.000000,0.000000,4.000000,4.000000,4.000000,4.000000,4.000000,4.000000,1.000000,4.000000,4.000000,4.000000,2.000000,25.000000
1602279040.756564,13.000000,0.000000,3901.025635,4657.948730,4158.974121,4258.974121,6020.512695,4609.743652,3963.589844,3868.205078,4295.384766,3971.281982,4205.128418,4119.487305,4072.820557,3968.718018,356.000000,4.000000,,,,0.000000,4.000000,4.000000,0.000000,4.000000,4.000000,4.000000,4.000000,4.000000,4.000000,1.000000,4.000000,4.000000,4.000000,2.000000,25.000000
1602279040.764393,14.000000,0.000000,3895.384521,4665.641113,4158.461426,4265.641113,5986.153809,4613.333496,3971.281982,3874.871826,4292.820313,3971.794922,4197.436035,4118.974121,4073.333252,3965.128174,447.000000,4.000000,,,,0.000000,4.000000,4.000000,0.000000,4.000000,4.000000,4.000000,4.000000,4.000000,4.000000,1.000000,4.000000,4.000000,4.000000,2.000000,25.000000
1602279040.772222,15.000000,0.000000,3887.692383,4658.974121,4162.051270,4250.769043,5955.897461,4605.641113,3962.564209,3870.256348,4281.538574,3970.769287,4192.307617,4118.461426,4069.230713,3963.589844,238.000000,4.000000,,,,0.000000,4.000000,4.000000,0.000000,4.000000,4.000000,4.000000,4.000000,4.000000,4.000000,1.000000,4.000000,4.000000,4.000000,2.000000,25.000000
1602279040.779948,16.000000,0.000000,3886.666748,4646.153809,4162.563965,4240.000000,5955.897461,4595.897461,3948.718018,3860.000000,4276.410156,3969.230713,4191.282227,4118.974121,4063.589844,3958.461426,0.000000,4.000000,,,,0.000000,4.000000,4.000000,0.000000,4.000000,4.000000,4.000000,4.000000,4.000000,4.000000,1.000000,4.000000,4.000000,4.000000,2.000000,25.000000
1602279040.787773,17.000000,0.000000,3891.794922,4649.230957,4160.000000,4247.179688,5949.743652,4597.948730,3953.333252,3865.128174,4278.974121,3970.769287,4193.846191,4119.487305,4069.743652,3958.974365,0.000000,4.000000,,,,0.000000,4.000000,4.000000,0.000000,4.000000,4.000000,4.000000,4.000000,4.000000,4.000000,1.000000,4.000000,4.000000,4.000000,2.000000,25.000000
1602279040.795499,18.000000,0.000000,3897.948730,4645.128418,4160.000000,4257.436035,5927.692383,4608.717773,3966.153809,3871.794922,4284.615234,3971.794922,4197.436035,4120.000000,4073.333252,3967.692383,0.000000,4.000000,,,,0.000000,4.000000,4.000000,0.000000,4.000000,4.000000,4.000000,4.000000,4.000000,4.000000,1.000000,4.000000,4.000000,4.000000,2.000000,25.000000
1602279040.803324,19.000000,0.000000,3898.461426,4650.256348,4163.589844,4267.179688,5924.102539,4618.461426,3966.666748,3865.128174,4284.102539,3967.179443,4193.333496,4119.487305,4058.974365,3965.641113,0.000000,4.000000,,,,0.000000,4.000000,4.000000,0.000000,4.000000,4.000000,4.000000,4.000000,4.000000,4.000000,1.000000,4.000000,4.000000,4.000000,2.000000,25.000000
1602279040.811049,20.000000,0.000000,3886.153809,4667.692383,4160.512695,4260.512695,5918.461426,4613.846191,3962.564209,3869.230713,4277.948730,3967.179443,4182.051270,4111.794922,4050.769287,3951.794922,0.000000,4.000000,,,,0.000000,4.000000,4.000000,0.000000,4.000000,4.000000,4.000000,4.000000,4.000000,4.000000,1.000000,4.000000,4.000000,4.000000,2.000000,25.000000
1602279040.818977,21.000000,0.000000,3874.358887,4649.743652,4159.487305,4237.948730,5885.128418,4597.436035,3961.538574,3881.025635,4276.922852,3975.897461,4180.000000,4104.102539,4055.384521,3950.256348,0.000000,4.000000,,,,0.000000,4.000000,4.000000,0.000000,4.000000,4.000000,4.000000,4.000000,4.000000,4.000000,1.000000,4.000000,4.000000,4.000000,2.000000,25.000000
1602279040.826805,22.000000,0.000000,3877.948730,4624.615234,4160.000000,4235.384766,5857.948730,4598.461426,3964.102539,3880.512939,4286.153809,3983.076904,4188.717773,4106.153809,4051.794922,3957.435791,0.000000,4.000000,,,,0.000000,4.000000,4.000000,0.000000,4.000000,4.000000,4.000000,4.000000,4.000000,4.000000,1.000000,4.000000,4.000000,4.000000,2.000000,25.000000
1602279040.834733,23.000000,0.000000,3892.820557,4650.256348,4160.512695,4256.922852,5861.025879,4621.538574,3972.820557,3878.974365,4303.589844,3991.281982,4193.846191,4120.512695,4055.897461,3964.102539,0.000000,4.000000,,,,0.000000,4.000000,4.000000,0.000000,4.000000,4.000000,4.000000,4.000000,4.000000,4.000000,1.000000,4.000000,4.000000,4.000000,2.000000,25.000000
1602279040.842561,24.000000,0.000000,3903.076904,4674.871582,4159.487305,4268.205078,5863.077148,4627.179688,3978.974365,3884.102539,4310.769043,4010.769287,4201.025879,4132.307617,4072.820557,3971.281982,0.000000,4.000000,,,,0.000000,4.000000,4.000000,0.000000,4.000000,4.000000,4.000000,4.000000,4.000000,4.000000,1.000000,4.000000,4.000000,4.000000,2.000000,25.000000
1602279040.850488,25.000000,0.000000,3901.538574,4653.333496,4160.512695,4258.974121,5855.897461,4606.666504,3969.743652,3881.025635,4296.410156,4032.307617,4204.102539,4124.615234,4076.923096,3973.333252,0.000000,4.000000,,,,0.000000,4.000000,4.000000,0.000000,4.000000,4.000000,4.000000,4.000000,4.000000,4.000000,1.000000,4.000000,4.000000,4.000000,2.000000,25.000000
1602279040.858316,26.000000,0.000000,3897.435791,4633.846191,4159.487305,4248.717773,5843.589844,4600.000000,3960.512939,3868.205078,4279.487305,4057.435791,4193.333496,4114.871582,4069.230713,3967.692383,0.000000,4.000000,,,,0.000000,4.000000,4.000000,0.000000,4.000000,4.000000,4.000000,4.000000,4.000000,4.000000,1.000000,4.000000,4.000000,4.000000,2.000000,25.000000
1602279040.866243,27.000000,0.000000,3900.000000,4644.102539,4158.974121,4248.205078,5816.410156,4614.358887,3969.743652,3873.846191,4282.563965,4097.436035,4195.384766,4126.666504,4071.794922,3965.641113,0.000000,4.000000,,,,0.000000,4.000000,4.000000,0.000000,4.000000,4.000000,4.000000,4.000000,4.000000,4.000000,1.000000,4.000000,4.000000,4.000000,2.000000,25.000000
1602279040.874070,28.000000,0.000000,3902.564209,4656.410156,4160.512695,4252.307617,5795.384766,4620.000000,3980.512939,3896.923096,4302.051270,4146.666504,4207.179688,4135.897461,4083.076904,3968.205078,0.000000,4.000000,,,,0.000000,4.000000,4.000000,0.000000,4.000000,4.000000,4.000000,4.000000,4.000000,4.000000,1.000000,4.000000,4.000000,4.000000,2.000000,25.000000
1602279040.881997,29.000000,0.000000,3894.871826,4655.897461,4162.051270,4251.794922,5790.256348,4610.769043,3972.307617,3898.461426,4305.641113,4190.256348,4195.384766,4125.128418,4082.564209,3967.692383,0.000000,4.000000,,,,0.000000,4.000000,4.000000,0.000000,4.000000,4.000000,4.000000,4.000000,4.000000,4.000000,1.000000,4.000000,4.000000,4.000000,2.000000,25.000000
1602279040.889823,30.000000,0.000000,3889.230713,4653.333496,4161.025879,4250.256348,5783.077148,4605.128418,3962.564209,3879.487061,4293.846191,4230.769043,4186.666504,4123.077148,4080.000000,3967.179443,0.000000,4.000000,,,,0.000000,4.000000,4.000000,0.000000,4.000000,4.000000,4.000000,4.000000,4.000000,4.000000,1.000000,4.000000,4.000000,4.000000,2.000000,25.000000
1602279040.897550,31.000000,0.000000,3898.461426,4640.512695,4162.563965,4253.846191,5770.256348,4610.256348,3971.281982,3875.897461,4288.205078,4274.871582,4200.000000,4131.794922,4076.923096,3970.769287,0.000000,4.000000,,,,0.000000,4.000000,4.000000,0.000000,4.000000,4.000000,4.000000,4.000000,4.000000,4.000000,1.000000,4.000000,4.000000,4.000000,2.000000,25.000000
1602279040.905377,32.000000,0.000000,3902.564209,4625.128418,4162.563965,4253.846191,5752.820313,4617.436035,3980.512939,3883.589844,4289.230957,4307.692383,4196.410156,4125.128418,4056.410156,3969.230713,0.000000,4.000000,,,,0.000000,4.000000,4.000000,0.000000,4.000000,4.000000,4.000000,4.000000,4.000000,4.000000,1.000000,4.000000,4.000000,4.000000,2.000000,25.000000
1602279040.913103,33.000000,0.000000,3894.871826,4638.461426,4162.563965,4245.641113,5743.077148,4615.384766,3973.846191,3878.974365,4284.615234,4324.102539,4182.051270,4119.487305,4044.615479,3965.641113,0.000000,4.000000,,,,0.000000,4.000000,4.000000,0.000000,4.000000,4.000000,4.000000,4.000000,4.000000,4.000000,1.000000,4.000000,4.000000,4.000000,2.000000,25.000000
1602279040.920929,34.000000,0.000000,3896.410156,4651.794922,4166.153809,4245.128418,5739.487305,4605.641113,3960.512939,3870.769287,4282.563965,4344.615234,4188.205078,4126.153809,4067.179443,3967.179443,0.000000,4.000000,,,,0.000000,4.000000,4.000000,0.000000,4.000000,4.000000,4.000000,4.000000,4.000000,4.000000,1.000000,4.000000,4.000000,4.000000,2.000000,25.000000
1602279040.928656,35.000000,0.000000,3902.051270,4643.077148,4164.102539,4261.025879,5729.743652,4607.692383,3958.461426,3872.820557,4288.717773,4370.769043,4197.948730,4124.102539,4085.641113,3965.128174,0.000000,4.000000,,,,0.000000,4.000000,4.000000,0.000000,4.000000,4.000000,4.000000,4.000000,4.000000,4.000000,1.000000,4.000000,4.000000,4.000000,2.000000,25.000000
1602279040.936482,36.000000,0.000000,3898.461426,4640.512695,4160.000000,4269.230957,5714.358887,4621.025879,3967.179443,3877.435791,4287.179688,4386.666504,4194.358887,4117.436035,4070.769287,3958.974365,0.000000,4.000000,,,,0.000000,4.000000,4.000000,0.000000,4.000000,4.000000,4.000000,4.000000,4.000000,4.000000,1.000000,4.000000,4.000000,4.000000,2.000000,25.000000
1602279040.944208,37.000000,0.000000,3892.820557,4654.358887,4160.000000,4262.051270,5696.922852,4618.974121,3969.743652,3876.410156,4283.589844,4398.461426,4186.153809,4116.922852,4056.923096,3955.384521,0.000000,4.000000,,,,0.000000,4.000000,4.000000,0.000000,4.000000,4.000000,4.000000,4.000000,4.000000,4.000000,1.000000,4.000000,4.000000,4.000000,2.000000,25.000000
1602279040.952034,38.000000,0.000000,3898.974365,4662.051270,4162.563965,4255.384766,5686.666504,4604.102539,3967.692383,3876.410156,4285.128418,4418.974121,4183.077148,4121.538574,4065.128174,3960.512939,0.000000,4.000000,,,,0.000000,4.000000,4.000000,0.000000,4.000000,4.000000,4.000000,4.000000,4.000000,4.000000,1.000000,4.000000,4.000000,4.000000,2.000000,25.000000
1602279040.959759,39.000000,0.000000,3909.743652,4656.922852,4161.025879,4263.589844,5691.794922,4608.717773,3971.794922,3881.538574,4288.717773,4443.589844,4191.282227,4128.205078,4080.000000,3969.743652,0.000000,4.000000,,,,0.000000,4.000000,4.000000,0.000000,4.000000,4.000000,4.000000,4.000000,4.000000,4.000000,1.000000,4.000000,4.000000,4.000000,2.000000,25.000000
1602279040.967585,40.000000,0.000000,3908.718018,4638.461426,4162.051270,4265.128418,5678.461426,4618.461426,3977.435791,3880.000000,4287.179688,4461.025879,4195.897461,4128.205078,4075.384521,3971.281982,0.000000,4.000000,,,,0.000000,4.000000,4.000000,0.000000,4.000000,4.000000,4.000000,4.000000,4.000000,4.000000,1.000000,4.000000,4.000000,4.000000,2.000000,25.000000
1602279040.975310,41.000000,0.000000,3893.333252,4629.743652,4159.487305,4249.743652,5641.538574,4610.256348,3972.307617,3872.820557,4278.461426,4469.230957,4190.256348,4117.948730,4051.281982,3960.512939,0.000000,4.000000,,,,0.000000,4.000000,4.000000,0.000000,4.000000,4.000000,4.000000,4.000000,4.000000,4.000000,1.000000,4.000000,4.000000,4.000000,2.000000,25.000000
1602279040.983136,42.000000,0.000000,3887.179443,4649.230957,4160.000000,4252.307617,5642.051270,4603.589844,3962.564209,3868.718018,4272.307617,4475.897461,4189.230957,4116.410156,4047.179443,3956.410156,0.000000,4.000000,,,,0.000000,4.000000,4.000000,0.000000,4.000000,4.000000,4.000000,4.000000,4.000000,4.000000,1.000000,4.000000,4.000000,4.000000,2.000000,25.000000
1602279040.990861,43.000000,0.000000,3895.384521,4652.820313,4161.025879,4268.205078,5656.410156,4609.230957,3961.025635,3867.692383,4275.897461,4483.077148,4194.358887,4122.051270,4072.820557,3960.512939,0.000000,4.000000,,,,0.000000,4.000000,4.000000,0.000000,4.000000,4.000000,4.000000,4.000000,4.000000,4.000000,1.000000,4.000000,4.000000,4.000000,2.000000,25.000000
1602279040.998789,44.000000,0.000000,3896.410156,4632.820313,4161.025879,4264.102539,5626.666504,4612.820313,3971.281982,3877.948730,4288.205078,4482.563965,4197.436035,4118.461426,4084.102539,3959.487061,0.000000,4.000000,,,,0.000000,4.000000,4.000000,0.000000,4.000000,4.000000,4.000000,4.000000,4.000000,4.000000,1.000000,4.000000,4.000000,4.000000,2.000000,25.000000
1602279041.006616,45.000000,0.000000,3887.692383,4628.205078,4163.077148,4243.077148,5595.897461,4613.333496,3978.461426,3880.512939,4282.051270,4477.948730,4191.282227,4111.794922,4060.512939,3954.358887,0.000000,4.000000,,,,0.000000,4.000000,4.000000,0.000000,4.000000,4.000000,4.000000,4.000000,4.000000,4.000000,1.000000,4.000000,4.000000,4.000000,2.000000,25.000000
1602279041.014544,46.000000,0.000000,3886.153809,4636.922852,4164.102539,4230.769043,5591.282227,4613.846191,3967.179443,3866.153809,4265.128418,4472.307617,4181.538574,4109.230957,4038.974365,3953.846191,0.000000,4.000000,,,,0.000000,4.000000,4.000000,0.000000,4.000000,4.000000,4.000000,4.000000,4.000000,4.000000,1.000000,4.000000,4.000000,4.000000,2.000000,25.000000
1602279041.022371,47.000000,0.000000,3893.333252,4647.179688,4160.000000,4238.974121,5589.743652,4613.333496,3963.589844,3868.205078,4272.307617,4465.641113,4193.846191,4113.846191,4056.923096,3959.487061,0.000000,4.000000,,,,0.000000,4.000000,4.000000,0.000000,4.000000,4.000000,4.000000,4.000000,4.000000,4.000000,1.000000,4.000000,4.000000,4.000000,2.000000,25.000000
1602279041.030299,48.000000,0.000000,3901.538574,4654.358887,4157.948730,4252.820313,5585.641113,4614.358887,3970.256348,3881.025635,4286.153809,4463.077148,4215.897461,4122.051270,4081.538574,3962.051270,0.000000,4.000000,,,,0.000000,4.000000,4.000000,0.000000,4.000000,4.000000,4.000000,4.000000,4.000000,4.000000,1.000000,4.000000,4.000000,4.000000,2.000000,25.000000
