title:your record name, start timestamp:1601229311.309987, stop timestamp:1601229321.390530, headset type:EPOC, headset serial:29135889, headset firmware:1e00, subject name:alzaabi.su, channels:38, sampling rate:128, samples:1290      , version:2.0
Timestamp,EEG.Counter,EEG.Interpolated,EEG.AF3,EEG.F7,EEG.F3,EEG.FC5,EEG.T7,EEG.P7,EEG.O1,EEG.O2,EEG.P8,EEG.T8,EEG.FC6,EEG.F4,EEG.F8,EEG.AF4,EEG.RawCq,EEG.Battery,MarkerIndex,MarkerType,MarkerValueInt,EEG.MarkerHardware,CQ.AF3,CQ.F7,CQ.F3,CQ.FC5,CQ.T7,CQ.P7,CQ.O1,CQ.O2,CQ.P8,CQ.T8,CQ.FC6,CQ.F4,CQ.F8,CQ.AF4,CQ.Overall
1601229311.309987,120.000000,0.000000,3901.538574,4636.922852,4136.410156,4267.692383,3991.281982,4608.205078,3974.871826,3865.641113,4324.615234,3993.846191,4235.897461,4138.461426,4094.871826,3996.410156,244.000000,4.000000,,,,0.000000,2.000000,4.000000,4.000000,4.000000,4.000000,4.000000,4.000000,4.000000,4.000000,4.000000,2.000000,4.000000,4.000000,1.000000,41.666668
1601229311.317907,121.000000,0.000000,3903.076904,4637.948730,4137.436035,4266.666504,3992.307617,4601.538574,3969.230713,3866.666748,4328.205078,3994.358887,4236.922852,4136.410156,4091.794922,3986.153809,346.000000,4.000000,,,,0.000000,2.000000,4.000000,4.000000,4.000000,4.000000,4.000000,4.000000,4.000000,4.000000,4.000000,2.000000,4.000000,4.000000,1.000000,41.666668
1601229311.325728,122.000000,0.000000,3907.692383,4640.512695,4145.128418,4269.230957,3985.641113,4595.897461,3965.641113,3866.153809,4325.128418,3992.820557,4235.897461,4138.461426,4091.794922,3986.666748,422.000000,4.000000,,,,0.000000,2.000000,4.000000,4.000000,4.000000,4.000000,4.000000,4.000000,4.000000,4.000000,4.000000,2.000000,4.000000,4.000000,1.000000,41.666668
1601229311.333448,123.000000,0.000000,3911.281982,4639.487305,4147.692383,4269.743652,3981.025635,4593.333496,3960.000000,3866.153809,4319.487305,3987.692383,4235.897461,4144.102539,4094.871826,3997.435791,48.000000,4.000000,,,,0.000000,2.000000,4.000000,4.000000,4.000000,4.000000,4.000000,4.000000,4.000000,4.000000,4.000000,2.000000,4.000000,4.000000,1.000000,41.666668
1601229311.341269,124.000000,0.000000,3915.897461,4641.538574,4148.205078,4273.333496,3986.666748,4594.358887,3953.333252,3864.615479,4316.410156,3985.128174,4242.051270,4147.692383,4095.897461,3994.871826,244.000000,4.000000,,,,0.000000,2.000000,4.000000,4.000000,4.000000,4.000000,4.000000,4.000000,4.000000,4.000000,4.000000,2.000000,4.000000,4.000000,1.000000,41.666668
1601229311.348990,125.000000,0.000000,3919.487061,4648.717773,4152.307617,4278.461426,3989.743652,4593.846191,3948.718018,3858.461426,4311.282227,3988.718018,4244.615234,4148.717773,4093.333252,3993.333252,346.000000,4.000000,,,,0.000000,2.000000,4.000000,4.000000,4.000000,4.000000,4.000000,4.000000,4.000000,4.000000,4.000000,2.000000,4.000000,4.000000,1.000000,41.666668
1601229311.356810,126.000000,0.000000,3913.333252,4644.615234,4146.666504,4272.307617,3981.538574,4578.974121,3936.923096,3845.641113,4293.333496,3977.435791,4231.794922,4140.512695,4079.487061,4001.538574,422.000000,4.000000,,,,0.000000,2.000000,4.000000,4.000000,4.000000,4.000000,4.000000,4.000000,4.000000,4.000000,4.000000,2.000000,4.000000,4.000000,1.000000,41.666668
1601229311.364531,127.000000,0.000000,3906.153809,4640.000000,4137.436035,4267.179688,3982.564209,4577.436035,3936.923096,3840.000000,4284.615234,3964.615479,4223.589844,4132.820313,4069.230713,4001.538574,48.000000,4.000000,,,,0.000000,2.000000,4.000000,4.000000,4.000000,4.000000,4.000000,4.000000,4.000000,4.000000,4.000000,2.000000,4.000000,4.000000,1.000000,41.666668
1601229311.372352,128.000000,0.000000,3907.692383,4644.615234,4142.051270,4272.307617,3992.820557,4600.000000,3957.948730,3849.743652,4294.358887,3969.743652,4231.282227,4135.384766,4073.846191,3990.256348,244.000000,4.000000,,,,0.000000,2.000000,4.000000,4.000000,4.000000,4.000000,4.000000,4.000000,4.000000,4.000000,4.000000,2.000000,4.000000,4.000000,1.000000,41.666668
1601229311.380072,0.000000,0.000000,3907.179443,4644.615234,4144.102539,4273.846191,3992.307617,4613.333496,3973.846191,3861.025635,4304.615234,3975.384521,4234.871582,4138.461426,4078.974365,3982.051270,376.000000,4.000000,,,,0.000000,2.000000,4.000000,4.000000,4.000000,4.000000,4.000000,4.000000,4.000000,4.000000,4.000000,2.000000,4.000000,4.000000,1.000000,41.666668
1601229311.387893,1.000000,0.000000,3901.025635,4635.384766,4134.358887,4262.051270,3983.076904,4605.128418,3972.820557,3862.051270,4307.179688,3968.718018,4228.205078,4134.358887,4071.281982,3983.589844,430.000000,4.000000,,,,0.000000,2.000000,4.000000,4.000000,4.000000,4.000000,4.000000,4.000000,4.000000,4.000000,4.000000,2.000000,4.000000,4.000000,1.000000,41.666668
1601229311.395614,2.000000,0.000000,3901.025635,4636.922852,4132.820313,4260.000000,3985.128174,4603.589844,3972.820557,3865.128174,4315.384766,3970.256348,4230.769043,4135.384766,4070.256348,3984.615479,383.000000,4.000000,,,,0.000000,2.000000,4.000000,4.000000,4.000000,4.000000,4.000000,4.000000,4.000000,4.000000,4.000000,2.000000,4.000000,4.000000,1.000000,41.666668
1601229311.403434,3.000000,0.000000,3901.025635,4638.974121,4133.846191,4263.589844,3988.205078,4600.512695,3968.205078,3867.179443,4317.948730,3975.897461,4232.307617,4137.948730,4075.384521,3984.615479,432.000000,4.000000,,,,0.000000,2.000000,4.000000,4.000000,4.000000,4.000000,4.000000,4.000000,4.000000,4.000000,4.000000,2.000000,4.000000,4.000000,1.000000,41.666668
1601229311.411155,4.000000,0.000000,3901.538574,4640.000000,4134.871582,4264.102539,3989.230713,4596.922852,3963.076904,3868.205078,4320.512695,3980.000000,4232.307617,4140.000000,4081.025635,3989.230713,456.000000,4.000000,,,,0.000000,2.000000,4.000000,4.000000,4.000000,4.000000,4.000000,4.000000,4.000000,4.000000,4.000000,2.000000,4.000000,4.000000,1.000000,41.666668
1601229311.419076,5.000000,0.000000,3912.307617,4650.256348,4147.179688,4274.871582,3997.948730,4604.615234,3966.666748,3874.871826,4337.436035,3995.897461,4248.717773,4151.282227,4096.410156,3998.974365,436.000000,4.000000,,,,0.000000,2.000000,4.000000,4.000000,4.000000,4.000000,4.000000,4.000000,4.000000,4.000000,4.000000,2.000000,4.000000,4.000000,1.000000,41.666668
1601229311.426896,6.000000,0.000000,3922.564209,4658.461426,4157.436035,4286.666504,4003.076904,4607.692383,3968.205078,3878.974365,4350.256348,4013.333252,4264.102539,4163.077148,4117.948730,4003.589844,448.000000,4.000000,,,,0.000000,2.000000,4.000000,4.000000,4.000000,4.000000,4.000000,4.000000,4.000000,4.000000,4.000000,2.000000,4.000000,4.000000,1.000000,41.666668
1601229311.434817,7.000000,0.000000,3921.025635,4652.820313,4151.794922,4283.077148,3990.769287,4593.846191,3955.384521,3869.743652,4340.512695,4011.794922,4256.410156,4162.563965,4118.461426,4000.512939,352.000000,4.000000,,,,0.000000,2.000000,4.000000,4.000000,4.000000,4.000000,4.000000,4.000000,4.000000,4.000000,4.000000,2.000000,4.000000,4.000000,1.000000,41.666668
1601229311.442638,8.000000,0.000000,3913.846191,4647.179688,4147.179688,4282.051270,3982.051270,4588.205078,3947.179443,3861.538574,4327.692383,4002.051270,4244.615234,4154.871582,4098.974121,3995.384521,405.000000,4.000000,,,,0.000000,2.000000,4.000000,4.000000,4.000000,4.000000,4.000000,4.000000,4.000000,4.000000,4.000000,2.000000,4.000000,4.000000,1.000000,41.666668
1601229311.450559,9.000000,0.000000,3908.718018,4643.077148,4147.692383,4280.512695,3988.205078,4598.974121,3956.923096,3865.128174,4325.641113,3995.384521,4241.025879,4147.179688,4088.718018,3995.897461,406.000000,4.000000,,,,0.000000,2.000000,4.000000,4.000000,4.000000,4.000000,4.000000,4.000000,4.000000,4.000000,4.000000,2.000000,4.000000,4.000000,1.000000,41.666668
1601229311.458380,10.000000,0.000000,3906.666748,4637.436035,4140.512695,4266.153809,3994.871826,4602.563965,3965.641113,3866.153809,4318.974121,3986.153809,4237.436035,4138.974121,4088.718018,3990.256348,425.000000,4.000000,,,,0.000000,2.000000,4.000000,4.000000,4.000000,4.000000,4.000000,4.000000,4.000000,4.000000,4.000000,2.000000,4.000000,4.000000,1.000000,41.666668
1601229311.466300,11.000000,0.000000,3903.076904,4636.922852,4135.384766,4256.922852,3993.846191,4595.384766,3964.102539,3862.564209,4312.820313,3978.974365,4233.846191,4135.897461,4082.564209,3985.128174,46.000000,4.000000,,,,0.000000,2.000000,4.000000,4.000000,4.000000,4.000000,4.000000,4.000000,4.000000,4.000000,4.000000,2.000000,4.000000,4.000000,1.000000,41.666668
1601229311.474121,12.000000,0.000000,3900.000000,4642.051270,4142.051270,4264.102539,3995.384521,4603.077148,3972.307617,3871.281982,4324.615234,3983.589844,4233.846191,4140.512695,4078.461426,3996.410156,244.000000,4.000000,,,,0.000000,2.000000,4.000000,4.000000,4.000000,4.000000,4.000000,4.000000,4.000000,4.000000,4.000000,2.000000,4.000000,4.000000,1.000000,41.666668
1601229311.482042,13.000000,0.000000,3901.538574,4644.102539,4144.615234,4267.179688,3997.948730,4618.974121,3987.179443,3882.051270,4338.461426,3990.256348,4235.384766,4141.025879,4081.538574,4004.102539,346.000000,4.000000,,,,0.000000,2.000000,4.000000,4.000000,4.000000,4.000000,4.000000,4.000000,4.000000,4.000000,4.000000,2.000000,4.000000,4.000000,1.000000,41.666668
1601229311.489863,14.000000,0.000000,3906.666748,4647.692383,4142.563965,4264.102539,3995.897461,4620.000000,3988.205078,3878.461426,4337.436035,3987.692383,4237.436035,4137.436035,4084.615479,3990.256348,425.000000,4.000000,,,,0.000000,2.000000,4.000000,4.000000,4.000000,4.000000,4.000000,4.000000,4.000000,4.000000,4.000000,2.000000,4.000000,4.000000,1.000000,41.666668
1601229311.497783,15.000000,0.000000,3909.743652,4654.871582,4143.589844,4272.307617,3996.923096,4612.820313,3979.487061,3872.307617,4333.846191,3989.743652,4239.487305,4140.000000,4088.205078,3982.051270,46.000000,4.000000,,,,0.000000,2.000000,4.000000,4.000000,4.000000,4.000000,4.000000,4.000000,4.000000,4.000000,4.000000,2.000000,4.000000,4.000000,1.000000,41.666668
1601229311.505604,16.000000,0.000000,3909.230713,4651.282227,4142.563965,4272.820313,3994.358887,4606.153809,3967.179443,3867.179443,4328.717773,3989.230713,4237.948730,4141.538574,4086.153809,3988.205078,0.000000,4.000000,,,,0.000000,2.000000,4.000000,4.000000,4.000000,4.000000,4.000000,4.000000,4.000000,4.000000,4.000000,2.000000,4.000000,4.000000,1.000000,41.666668
1601229311.513325,17.000000,0.000000,3906.666748,4642.051270,4142.051270,4264.102539,3985.128174,4596.922852,3956.923096,3860.512939,4317.436035,3978.461426,4234.871582,4137.948730,4077.435791,3989.743652,0.000000,4.000000,,,,0.000000,2.000000,4.000000,4.000000,4.000000,4.000000,4.000000,4.000000,4.000000,4.000000,4.000000,2.000000,4.000000,4.000000,1.000000,41.666668
1601229311.521145,18.000000,0.000000,3904.102539,4643.589844,4144.615234,4266.666504,3981.025635,4589.743652,3955.384521,3857.435791,4309.743652,3969.743652,4233.333496,4138.974121,4077.435791,3986.153809,0.000000,4.000000,,,,0.000000,2.000000,4.000000,4.000000,4.000000,4.000000,4.000000,4.000000,4.000000,4.000000,4.000000,2.000000,4.000000,4.000000,1.000000,41.666668
1601229311.528866,19.000000,0.000000,3909.230713,4656.410156,4146.666504,4283.077148,3991.281982,4595.897461,3961.025635,3864.102539,4315.384766,3977.435791,4236.922852,4146.153809,4089.230713,3985.128174,0.000000,4.000000,,,,0.000000,2.000000,4.000000,4.000000,4.000000,4.000000,4.000000,4.000000,4.000000,4.000000,4.000000,2.000000,4.000000,4.000000,1.000000,41.666668
1601229311.536686,20.000000,0.000000,3914.871826,4658.974121,4150.256348,4287.692383,3997.435791,4601.538574,3960.000000,3863.076904,4316.922852,3983.589844,4240.000000,4148.717773,4088.718018,3992.820557,0.000000,4.000000,,,,0.000000,2.000000,4.000000,4.000000,4.000000,4.000000,4.000000,4.000000,4.000000,4.000000,4.000000,2.000000,4.000000,4.000000,1.000000,41.666668
1601229311.544407,21.000000,0.000000,3915.897461,4660.000000,4156.922852,4284.615234,3998.974365,4605.641113,3960.512939,3861.025635,4318.974121,3982.051270,4240.512695,4151.282227,4088.205078,4003.076904,0.000000,4.000000,,,,0.000000,2.000000,4.000000,4.000000,4.000000,4.000000,4.000000,4.000000,4.000000,4.000000,4.000000,2.000000,4.000000,4.000000,1.000000,41.666668
1601229311.552228,22.000000,0.000000,3911.794922,4662.563965,4152.820313,4286.666504,3997.948730,4607.179688,3961.025635,3863.589844,4324.102539,3980.512939,4240.000000,4153.333496,4093.333252,4000.000000,0.000000,4.000000,,,,0.000000,2.000000,4.000000,4.000000,4.000000,4.000000,4.000000,4.000000,4.000000,4.000000,4.000000,2.000000,4.000000,4.000000,1.000000,41.666668
1601229311.559948,23.000000,0.000000,3908.205078,4657.436035,4146.153809,4275.384766,3991.794922,4602.051270,3956.923096,3863.076904,4325.641113,3981.538574,4235.897461,4148.717773,4085.641113,3986.153809,0.000000,4.000000,,,,0.000000,2.000000,4.000000,4.000000,4.000000,4.000000,4.000000,4.000000,4.000000,4.000000,4.000000,2.000000,4.000000,4.000000,1.000000,41.666668
1601229311.567769,24.000000,0.000000,3907.692383,4650.256348,4149.743652,4261.025879,3987.179443,4596.410156,3953.333252,3860.000000,4322.051270,3980.000000,4232.307617,4141.538574,4077.435791,3986.666748,0.000000,4.000000,,,,0.000000,2.000000,4.000000,4.000000,4.000000,4.000000,4.000000,4.000000,4.000000,4.000000,4.000000,2.000000,4.000000,4.000000,1.000000,41.666668
1601229311.575490,25.000000,0.000000,3909.230713,4652.820313,4149.743652,4273.846191,3991.794922,4601.538574,3958.974365,3863.589844,4323.077148,3982.051270,4234.871582,4142.563965,4085.641113,3990.769287,0.000000,4.000000,,,,0.000000,2.000000,4.000000,4.000000,4.000000,4.000000,4.000000,4.000000,4.000000,4.000000,4.000000,2.000000,4.000000,4.000000,1.000000,41.666668
1601229311.583310,26.000000,0.000000,3905.641113,4649.743652,4140.000000,4284.615234,3991.281982,4596.410156,3959.487061,3863.589844,4325.128418,3986.153809,4234.871582,4143.589844,4087.179443,3987.692383,0.000000,4.000000,,,,0.000000,2.000000,4.000000,4.000000,4.000000,4.000000,4.000000,4.000000,4.000000,4.000000,4.000000,2.000000,4.000000,4.000000,1.000000,41.666668
1601229311.591031,27.000000,0.000000,3897.435791,4640.000000,4136.410156,4271.282227,3983.076904,4584.102539,3954.358887,3858.974365,4319.487305,3983.076904,4231.794922,4137.436035,4076.923096,3984.102539,0.000000,4.000000,,,,0.000000,2.000000,4.000000,4.000000,4.000000,4.000000,4.000000,4.000000,4.000000,4.000000,4.000000,2.000000,4.000000,4.000000,1.000000,41.666668
1601229311.598952,28.000000,0.000000,3893.333252,4645.128418,4138.974121,4264.615234,3982.051270,4587.692383,3952.307617,3861.025635,4314.358887,3978.461426,4233.333496,4134.358887,4076.923096,3985.128174,0.000000,4.000000,,,,0.000000,2.000000,4.000000,4.000000,4.000000,4.000000,4.000000,4.000000,4.000000,4.000000,4.000000,2.000000,4.000000,4.000000,1.000000,41.666668
1601229311.606772,29.000000,0.000000,3900.512939,4656.410156,4142.051270,4274.358887,3990.769287,4595.897461,3953.846191,3865.128174,4316.922852,3981.025635,4235.384766,4141.025879,4087.692383,3992.307617,0.000000,4.000000,,,,0.000000,2.000000,4.000000,4.000000,4.000000,4.000000,4.000000,4.000000,4.000000,4.000000,4.000000,2.000000,4.000000,4.000000,1.000000,41.666668
1601229311.614693,30.000000,0.000000,3907.179443,4660.000000,4143.589844,4276.410156,3999.487061,4598.461426,3958.974365,3862.051270,4320.000000,3986.153809,4235.384766,4143.077148,4094.871826,4003.076904,0.000000,4.000000,,,,0.000000,2.000000,4.000000,4.000000,4.000000,4.000000,4.000000,4.000000,4.000000,4.000000,4.000000,2.000000,4.000000,4.000000,1.000000,41.666668
1601229311.622514,31.000000,0.000000,3905.128174,4659.487305,4142.563965,4273.846191,3997.948730,4602.563965,3960.512939,3856.410156,4315.897461,3982.051270,4233.333496,4137.948730,4092.820557,4000.512939,0.000000,4.000000,,,,0.000000,2.000000,4.000000,4.000000,4.000000,4.000000,4.000000,4.000000,4.000000,4.000000,4.000000,2.000000,4.000000,4.000000,1.000000,41.666668
1601229311.630435,32.000000,0.000000,3902.564209,4662.563965,4139.487305,4280.000000,3997.948730,4607.692383,3961.025635,3855.897461,4312.820313,3973.846191,4231.282227,4137.436035,4085.641113,3987.179443,0.000000,4.000000,,,,0.000000,2.000000,4.000000,4.000000,4.000000,4.000000,4.000000,4.000000,4.000000,4.000000,4.000000,2.000000,4.000000,4.000000,1.000000,41.666668
1601229311.638256,33.000000,0.000000,3902.564209,4657.436035,4139.487305,4278.461426,3998.461426,4604.615234,3962.051270,3858.974365,4313.333496,3968.718018,4228.205078,4141.538574,4080.512939,3984.102539,0.000000,4.000000,,,,0.000000,2.000000,4.000000,4.000000,4.000000,4.000000,4.000000,4.000000,4.000000,4.000000,4.000000,2.000000,4.000000,4.000000,1.000000,41.666668
1601229311.646176,34.000000,0.000000,3897.435791,4646.153809,4141.538574,4269.743652,3990.769287,4599.487305,3963.076904,3862.564209,4317.436035,3972.307617,4231.282227,4146.666504,4082.051270,3989.743652,0.000000,4.000000,,,,0.000000,2.000000,4.000000,4.000000,4.000000,4.000000,4.000000,4.000000,4.000000,4.000000,4.000000,2.000000,4.000000,4.000000,1.000000,41.666668
1601229311.653997,35.000000,0.000000,3899.487061,4643.589844,4144.102539,4266.153809,3986.153809,4599.487305,3964.615479,3866.666748,4326.153809,3981.025635,4238.974121,4152.307617,4085.128174,3990.256348,0.000000,4.000000,,,,0.000000,2.000000,4.000000,4.000000,4.000000,4.000000,4.000000,4.000000,4.000000,4.000000,4.000000,2.000000,4.000000,4.000000,1.000000,41.666668
1601229311.661918,36.000000,0.000000,3907.692383,4655.897461,4148.205078,4278.461426,3996.923096,4610.769043,3976.410156,3877.948730,4341.538574,3995.384521,4243.077148,4154.871582,4093.846191,3987.179443,0.000000,4.000000,,,,0.000000,2.000000,4.000000,4.000000,4.000000,4.000000,4.000000,4.000000,4.000000,4.000000,4.000000,2.000000,4.000000,4.000000,1.000000,41.666668
1601229311.669739,37.000000,0.000000,3904.102539,4656.410156,4145.641113,4284.615234,3998.461426,4613.846191,3978.974365,3883.076904,4345.128418,4000.000000,4237.948730,4148.717773,4094.358887,3991.794922,0.000000,4.000000,,,,0.000000,2.000000,4.000000,4.000000,4.000000,4.000000,4.000000,4.000000,4.000000,4.000000,4.000000,2.000000,4.000000,4.000000,1.000000,41.666668
1601229311.677659,38.000000,0.000000,3900.512939,4646.153809,4143.077148,4278.974121,3991.281982,4607.179688,3973.846191,3875.897461,4340.512695,3995.897461,4233.333496,4144.615234,4084.102539,3995.384521,0.000000,4.000000,,,,0.000000,2.000000,4.000000,4.000000,4.000000,4.000000,4.000000,4.000000,4.000000,4.000000,4.000000,2.000000,4.000000,4.000000,1.000000,41.666668
1601229311.685480,39.000000,0.000000,3905.128174,4645.641113,4143.589844,4274.871582,3991.281982,4606.153809,3972.307617,3870.256348,4336.922852,3989.230713,4233.333496,4145.128418,4076.410156,3989.743652,0.000000,4.000000,,,,0.000000,2.000000,4.000000,4.000000,4.000000,4.000000,4.000000,4.000000,4.000000,4.000000,4.000000,2.000000,4.000000,4.000000,1.000000,41.666668
1601229311.693201,40.000000,0.000000,3904.102539,4649.743652,4142.563965,4275.897461,3995.897461,4604.615234,3970.256348,3870.769287,4334.871582,3985.641113,4236.410156,4146.153809,4080.000000,3980.512939,0.000000,4.000000,,,,0.000000,2.000000,4.000000,4.000000,4.000000,4.000000,4.000000,4.000000,4.000000,4.000000,4.000000,2.000000,4.000000,4.000000,1.000000,41.666668
1601229311.701021,41.000000,0.000000,3898.461426,4646.153809,4143.589844,4270.256348,3995.384521,4599.487305,3967.179443,3863.589844,4330.256348,3982.564209,4238.461426,4145.641113,4084.102539,3981.025635,0.000000,4.000000,,,,0.000000,2.000000,4.000000,4.000000,4.000000,4.000000,4.000000,4.000000,4.000000,4.000000,4.000000,2.000000,4.000000,4.000000,1.000000,41.666668
1601229311.708742,42.000000,0.000000,3900.000000,4646.666504,4144.615234,4265.641113,3992.820557,4603.077148,3968.718018,3858.974365,4327.179688,3982.564209,4237.436035,4145.128418,4085.641113,3982.564209,0.000000,4.000000,,,,0.000000,2.000000,4.000000,4.000000,4.000000,4.000000,4.000000,4.000000,4.000000,4.000000,4.000000,2.000000,4.000000,4.000000,1.000000,41.666668
1601229311.716563,43.000000,0.000000,3903.076904,4651.794922,4138.974121,4269.743652,3988.205078,4603.589844,3965.128174,3863.589844,4324.102539,3983.076904,4235.384766,4148.205078,4089.743652,3983.589844,0.000000,4.000000,,,,0.000000,2.000000,4.000000,4.000000,4.000000,4.000000,4.000000,4.000000,4.000000,4.000000,4.000000,2.000000,4.000000,4.000000,1.000000,41.666668
1601229311.724283,44.000000,0.000000,3903.076904,4653.333496,4138.461426,4276.922852,3989.230713,4597.436035,3959.487061,3867.692383,4320.000000,3981.538574,4236.410156,4151.794922,4094.358887,3982.564209,0.000000,4.000000,,,,0.000000,2.000000,4.000000,4.000000,4.000000,4.000000,4.000000,4.000000,4.000000,4.000000,4.000000,2.000000,4.000000,4.000000,1.000000,41.666668
1601229311.732104,45.000000,0.000000,3904.615479,4655.897461,4143.589844,4283.077148,3996.923096,4598.461426,3965.128174,3870.256348,4323.077148,3985.641113,4242.051270,4152.820313,4102.051270,3985.128174,0.000000,4.000000,,,,0.000000,2.000000,4.000000,4.000000,4.000000,4.000000,4.000000,4.000000,4.000000,4.000000,4.000000,2.000000,4.000000,4.000000,1.000000,41.666668
1601229311.739825,46.000000,0.000000,3907.692383,4658.974121,4146.666504,4281.538574,3997.435791,4604.615234,3970.769287,3872.307617,4329.743652,3994.358887,4246.153809,4154.358887,4102.563965,3990.769287,0.000000,4.000000,,,,0.000000,2.000000,4.000000,4.000000,4.000000,4.000000,4.000000,4.000000,4.000000,4.000000,4.000000,2.000000,4.000000,4.000000,1.000000,41.666668
1601229311.747645,47.000000,0.000000,3906.666748,4651.794922,4145.641113,4268.205078,3988.718018,4606.666504,3968.205078,3868.205078,4326.153809,3991.794922,4238.461426,4151.794922,4093.333252,3988.718018,0.000000,4.000000,,,,0.000000,2.000000,4.000000,4.000000,4.000000,4.000000,4.000000,4.000000,4.000000,4.000000,4.000000,2.000000,4.000000,4.000000,1.000000,41.666668
1601229311.755366,48.000000,0.000000,3901.025635,4645.128418,4142.563965,4264.102539,3982.564209,4603.077148,3960.000000,3856.410156,4312.820313,3975.897461,4225.641113,4143.077148,4082.051270,3980.512939,0.000000,4.000000,,,,0.000000,2.000000,4.000000,4.000000,4.000000,4.000000,4.000000,4.000000,4.000000,4.000000,4.000000,2.000000,4.000000,4.000000,1.000000,41.666668
1601229311.763186,49.000000,0.000000,3898.974365,4651.282227,4137.948730,4276.410156,3987.179443,4598.974121,3956.410156,3853.333252,4310.769043,3974.871826,4224.615234,4142.051270,4080.512939,3977.948730,0.000000,4.000000,,,,0.000000,2.000000,4.000000,4.000000,4.000000,4.000000,4.000000,4.000000,4.000000,4.000000,4.000000,2.000000,4.000000,4.000000,1.000000,41.666668
1601229311.770906,50.000000,0.000000,3905.128174,4651.794922,4142.563965,4277.436035,3988.205078,4594.871582,3958.461426,3856.923096,4315.384766,3980.512939,4231.282227,4149.230957,4083.076904,3982.051270,0.000000,4.000000,,,,0.000000,2.000000,4.000000,4.000000,4.000000,4.000000,4.000000,4.000000,4.000000,4.000000,4.000000,2.000000,4.000000,4.000000,1.000000,41.666668
1601229311.778827,51.000000,0.000000,3908.205078,4644.615234,4150.769043,4267.179688,3983.076904,4594.358887,3960.000000,3858.461426,4316.410156,3977.948730,4234.358887,4150.769043,4083.076904,3983.589844,0.000000,4.000000,,,,0.000000,2.000000,4.000000,4.000000,4.000000,4.000000,4.000000,4.000000,4.000000,4.000000,4.000000,2.000000,4.000000,4.000000,1.000000,41.666668
1601229311.786648,52.000000,0.000000,3904.102539,4638.461426,4148.717773,4266.666504,3974.871826,4592.820313,3959.487061,3858.974365,4315.897461,3975.384521,4236.410156,4148.717773,4080.000000,3986.153809,0.000000,4.000000,,,,0.000000,2.000000,4.000000,4.000000,4.000000,4.000000,4.000000,4.000000,4.000000,4.000000,4.000000,2.000000,4.000000,4.000000,1.000000,41.666668
1601229311.794569,53.000000,0.000000,3903.076904,4643.077148,4141.538574,4274.358887,3980.512939,4596.410156,3965.128174,3867.692383,4323.077148,3980.000000,4236.922852,4147.692383,4081.538574,3985.128174,0.000000,4.000000,,,,0.000000,2.000000,4.000000,4.000000,4.000000,4.000000,4.000000,4.000000,4.000000,4.000000,4.000000,2.000000,4.000000,4.000000,1.000000,41.666668
1601229311.802390,54.000000,0.000000,3901.025635,4646.153809,4135.897461,4269.230957,3987.179443,4600.512695,3966.666748,3868.718018,4327.692383,3975.897461,4228.205078,4140.512695,4081.538574,3980.000000,0.000000,4.000000,,,,0.000000,2.000000,4.000000,4.000000,4.000000,4.000000,4.000000,4.000000,4.000000,4.000000,4.000000,2.000000,4.000000,4.000000,1.000000,41.666668
1601229311.810310,55.000000,0.000000,3894.358887,4641.025879,4133.846191,4264.615234,3989.230713,4602.051270,3966.666748,3866.666748,4328.205078,3972.307617,4224.615234,4135.897461,4082.564209,3978.461426,0.000000,4.000000,,,,0.000000,2.000000,4.000000,4.000000,4.000000,4.000000,4.000000,4.000000,4.000000,4.000000,4.000000,2.000000,4.000000,4.000000,1.000000,41.666668
1601229311.818131,56.000000,0.000000,3890.769287,4637.948730,4134.871582,4266.666504,3992.820557,4600.512695,3966.666748,3869.230713,4328.205078,3973.846191,4229.743652,4137.948730,4082.051270,3979.487061,0.000000,4.000000,,,,0.000000,2.000000,4.000000,4.000000,4.000000,4.000000,4.000000,4.000000,4.000000,4.000000,4.000000,2.000000,4.000000,4.000000,1.000000,41.666668
1601229311.826052,57.000000,0.000000,3894.358887,4645.641113,4134.871582,4270.256348,3994.871826,4600.000000,3963.589844,3865.128174,4323.589844,3971.281982,4229.743652,4140.000000,4081.538574,3977.948730,0.000000,4.000000,,,,0.000000,2.000000,4.000000,4.000000,4.000000,4.000000,4.000000,4.000000,4.000000,4.000000,4.000000,2.000000,4.000000,4.000000,1.000000,41.666668
1601229311.833873,58.000000,0.000000,3896.410156,4650.256348,4136.410156,4270.256348,3992.820557,4596.410156,3957.948730,3856.923096,4315.384766,3967.179443,4225.128418,4136.410156,4081.538574,3980.000000,0.000000,4.000000,,,,0.000000,2.000000,4.000000,4.000000,4.000000,4.000000,4.000000,4.000000,4.000000,4.000000,4.000000,2.000000,4.000000,4.000000,1.000000,41.666668
1601229311.841794,59.000000,0.000000,3896.923096,4649.230957,4139.487305,4277.436035,3990.769287,4589.743652,3954.871826,3856.410156,4310.769043,3966.666748,4226.153809,4135.384766,4080.512939,3983.589844,0.000000,4.000000,,,,0.000000,2.000000,4.000000,4.000000,4.000000,4.000000,4.000000,4.000000,4.000000,4.000000,4.000000,2.000000,4.000000,4.000000,1.000000,41.666668
1601229311.849614,60.000000,0.000000,3895.897461,4648.717773,4137.948730,4284.615234,3986.153809,4586.153809,3949.743652,3854.871826,4304.102539,3962.051270,4227.179688,4135.897461,4076.923096,3988.205078,0.000000,4.000000,,,,0.000000,2.000000,4.000000,4.000000,4.000000,4.000000,4.000000,4.000000,4.000000,4.000000,4.000000,2.000000,4.000000,4.000000,1.000000,41.666668
1601229311.857535,61.000000,0.000000,3897.435791,4647.692383,4137.436035,4281.538574,3983.076904,4584.615234,3947.179443,3852.820557,4299.487305,3955.384521,4222.563965,4135.384766,4076.410156,3993.333252,0.000000,4.000000,,,,0.000000,2.000000,4.000000,4.000000,4.000000,4.000000,4.000000,4.000000,4.000000,4.000000,4.000000,2.000000,4.000000,4.000000,1.000000,41.666668
1601229311.865356,62.000000,0.000000,3901.025635,4648.717773,4141.025879,4278.461426,3988.718018,4590.769043,3957.435791,3860.000000,4310.256348,3961.538574,4225.641113,4137.948730,4083.589844,3993.333252,0.000000,4.000000,,,,0.000000,2.000000,4.000000,4.000000,4.000000,4.000000,4.000000,4.000000,4.000000,4.000000,4.000000,2.000000,4.000000,4.000000,1.000000,41.666668
1601229311.873277,63.000000,0.000000,3898.974365,4648.717773,4138.974121,4278.974121,3992.820557,4596.410156,3964.102539,3865.128174,4321.025879,3972.307617,4230.256348,4141.538574,4088.718018,3995.384521,0.000000,4.000000,,,,0.000000,2.000000,4.000000,4.000000,4.000000,4.000000,4.000000,4.000000,4.000000,4.000000,4.000000,2.000000,4.000000,4.000000,1.000000,41.666668
1601229311.881097,64.000000,0.000000,3895.384521,4647.179688,4133.333496,4278.974121,3989.230713,4599.487305,3963.589844,3866.666748,4322.563965,3978.461426,4231.794922,4142.051270,4088.205078,4001.025635,376.000000,4.000000,,,,0.000000,2.000000,4.000000,4.000000,4.000000,4.000000,4.000000,4.000000,4.000000,4.000000,4.000000,2.000000,4.000000,4.000000,1.000000,41.666668
1601229311.888818,65.000000,0.000000,3895.384521,4644.102539,4134.871582,4275.897461,3987.179443,4600.000000,3962.051270,3868.718018,4323.589844,3974.871826,4230.256348,4137.948730,4085.128174,3997.435791,434.000000,4.000000,,,,0.000000,2.000000,4.000000,4.000000,4.000000,4.000000,4.000000,4.000000,4.000000,4.000000,4.000000,2.000000,4.000000,4.000000,1.000000,41.666668
1601229311.896638,66.000000,0.000000,3895.897461,4643.077148,4135.384766,4275.897461,3988.718018,4596.922852,3959.487061,3867.692383,4326.153809,3970.256348,4229.230957,4137.948730,4089.743652,3990.769287,383.000000,4.000000,,,,0.000000,2.000000,4.000000,4.000000,4.000000,4.000000,4.000000,4.000000,4.000000,4.000000,4.000000,2.000000,4.000000,4.000000,1.000000,41.666668
1601229311.904359,67.000000,0.000000,3893.846191,4642.051270,4131.282227,4274.358887,3986.153809,4588.717773,3953.846191,3862.564209,4319.487305,3967.692383,4227.179688,4141.538574,4090.769287,3997.435791,434.000000,4.000000,,,,0.000000,2.000000,4.000000,4.000000,4.000000,4.000000,4.000000,4.000000,4.000000,4.000000,4.000000,2.000000,4.000000,4.000000,1.000000,41.666668
1601229311.912180,68.000000,0.000000,3896.923096,4641.538574,4138.974121,4275.384766,3982.051270,4584.102539,3952.820557,3860.000000,4314.358887,3966.666748,4226.153809,4142.051270,4081.538574,4002.564209,455.000000,4.000000,,,,0.000000,2.000000,4.000000,4.000000,4.000000,4.000000,4.000000,4.000000,4.000000,4.000000,4.000000,2.000000,4.000000,4.000000,1.000000,41.666668
1601229311.919900,69.000000,0.000000,3898.461426,4636.410156,4144.102539,4276.922852,3981.025635,4583.589844,3955.384521,3858.461426,4311.282227,3962.051270,4225.641113,4137.948730,4077.435791,4000.000000,436.000000,4.000000,,,,0.000000,2.000000,4.000000,4.000000,4.000000,4.000000,4.000000,4.000000,4.000000,4.000000,4.000000,2.000000,4.000000,4.000000,1.000000,41.666668
1601229311.927721,70.000000,0.000000,3895.897461,4642.563965,4134.358887,4277.948730,3986.666748,4590.256348,3958.974365,3855.897461,4309.743652,3965.641113,4226.153809,4135.384766,4086.153809,3995.897461,445.000000,4.000000,,,,0.000000,2.000000,4.000000,4.000000,4.000000,4.000000,4.000000,4.000000,4.000000,4.000000,4.000000,2.000000,4.000000,4.000000,1.000000,41.666668
1601229311.935442,71.000000,0.000000,3900.512939,4650.256348,4131.794922,4278.974121,3986.153809,4594.871582,3958.461426,3851.794922,4311.282227,3972.820557,4226.153809,4136.410156,4088.205078,3996.410156,354.000000,4.000000,,,,0.000000,2.000000,4.000000,4.000000,4.000000,4.000000,4.000000,4.000000,4.000000,4.000000,4.000000,2.000000,4.000000,4.000000,1.000000,41.666668
1601229311.943262,72.000000,0.000000,3908.205078,4645.128418,4143.077148,4281.538574,3984.615479,4597.436035,3961.025635,3858.974365,4318.974121,3978.461426,4230.256348,4142.051270,4093.846191,3995.384521,404.000000,4.000000,,,,0.000000,2.000000,4.000000,4.000000,4.000000,4.000000,4.000000,4.000000,4.000000,4.000000,4.000000,2.000000,4.000000,4.000000,1.000000,41.666668
1601229311.950983,73.000000,0.000000,3907.692383,4645.128418,4144.615234,4280.000000,3987.692383,4599.487305,3967.179443,3869.230713,4327.692383,3985.128174,4238.461426,4149.230957,4107.179688,3996.410156,407.000000,4.000000,,,,0.000000,2.000000,4.000000,4.000000,4.000000,4.000000,4.000000,4.000000,4.000000,4.000000,4.000000,2.000000,4.000000,4.000000,1.000000,41.666668
1601229311.958904,74.000000,0.000000,3905.128174,4652.820313,4138.974121,4275.897461,3986.153809,4593.333496,3964.102539,3869.230713,4330.256348,3990.769287,4241.025879,4151.282227,4102.563965,3995.897461,427.000000,4.000000,,,,0.000000,2.000000,4.000000,4.000000,4.000000,4.000000,4.000000,4.000000,4.000000,4.000000,4.000000,2.000000,4.000000,4.000000,1.000000,41.666668
1601229311.966724,75.000000,0.000000,3907.179443,4644.615234,4146.666504,4268.205078,3978.974365,4584.615234,3955.897461,3866.666748,4329.230957,3988.718018,4235.897461,4149.743652,4088.718018,3998.974365,43.000000,4.000000,,,,0.000000,2.000000,4.000000,4.000000,4.000000,4.000000,4.000000,4.000000,4.000000,4.000000,4.000000,2.000000,4.000000,4.000000,1.000000,41.666668
1601229311.974645,76.000000,0.000000,3909.230713,4638.974121,4152.307617,4267.179688,3981.538574,4592.820313,3958.974365,3869.743652,4331.794922,3984.102539,4233.333496,4150.256348,4094.871826,4001.538574,246.000000,4.000000,,,,0.000000,2.000000,4.000000,4.000000,4.000000,4.000000,4.000000,4.000000,4.000000,4.000000,4.000000,2.000000,4.000000,4.000000,1.000000,41.666668
1601229311.982466,77.000000,0.000000,3908.205078,4650.769043,4144.615234,4278.461426,3989.230713,4600.000000,3965.128174,3869.743652,4332.307617,3980.512939,4232.820313,4152.820313,4104.615234,3998.974365,346.000000,4.000000,,,,0.000000,2.000000,4.000000,4.000000,4.000000,4.000000,4.000000,4.000000,4.000000,4.000000,4.000000,2.000000,4.000000,4.000000,1.000000,41.666668
1601229311.990387,78.000000,0.000000,3909.230713,4655.897461,4141.538574,4283.589844,3990.256348,4592.307617,3961.025635,3867.692383,4327.179688,3978.974365,4234.358887,4152.820313,4098.461426,3992.307617,427.000000,4.000000,,,,0.000000,2.000000,4.000000,4.000000,4.000000,4.000000,4.000000,4.000000,4.000000,4.000000,4.000000,2.000000,4.000000,4.000000,1.000000,41.666668
1601229311.998208,79.000000,0.000000,3909.230713,4650.256348,4145.128418,4277.948730,3987.179443,4588.205078,3957.948730,3865.641113,4321.538574,3977.435791,4234.358887,4147.692383,4088.718018,3992.307617,43.000000,4.000000,,,,0.000000,2.000000,4.000000,4.000000,4.000000,4.000000,4.000000,4.000000,4.000000,4.000000,4.000000,2.000000,4.000000,4.000000,1.000000,41.666668
1601229312.006128,80.000000,0.000000,3908.205078,4644.615234,4143.589844,4270.256348,3982.564209,4592.307617,3960.512939,3860.512939,4316.410156,3969.743652,4228.205078,4142.051270,4086.153809,3996.410156,246.000000,4.000000,,,,0.000000,2.000000,4.000000,4.000000,4.000000,4.000000,4.000000,4.000000,4.000000,4.000000,4.000000,2.000000,4.000000,4.000000,1.000000,41.666668
1601229312.013949,81.000000,0.000000,3909.743652,4645.641113,4141.025879,4271.794922,3982.051270,4591.282227,3962.051270,3858.461426,4314.871582,3967.692383,4227.179688,4145.128418,4089.230713,3993.846191,346.000000,4.000000,,,,0.000000,2.000000,4.000000,4.000000,4.000000,4.000000,4.000000,4.000000,4.000000,4.000000,4.000000,2.000000,4.000000,4.000000,1.000000,41.666668
1601229312.021870,82.000000,0.000000,3911.794922,4650.256348,4144.102539,4277.436035,3983.589844,4586.666504,3961.025635,3862.051270,4316.922852,3972.820557,4231.794922,4150.256348,4089.743652,3995.384521,427.000000,4.000000,,,,0.000000,2.000000,4.000000,4.000000,4.000000,4.000000,4.000000,4.000000,4.000000,4.000000,4.000000,2.000000,4.000000,4.000000,1.000000,41.666668
1601229312.029691,83.000000,0.000000,3911.281982,4651.794922,4147.179688,4278.974121,3987.692383,4590.256348,3967.179443,3867.692383,4325.641113,3982.564209,4236.922852,4149.230957,4093.846191,4003.076904,43.000000,4.000000,,,,0.000000,2.000000,4.000000,4.000000,4.000000,4.000000,4.000000,4.000000,4.000000,4.000000,4.000000,2.000000,4.000000,4.000000,1.000000,41.666668
1601229312.037612,84.000000,0.000000,3912.307617,4649.743652,4146.153809,4278.461426,3988.205078,4595.897461,3971.281982,3871.281982,4333.846191,3990.256348,4242.563965,4151.282227,4104.615234,4004.615479,246.000000,4.000000,,,,0.000000,2.000000,4.000000,4.000000,4.000000,4.000000,4.000000,4.000000,4.000000,4.000000,4.000000,2.000000,4.000000,4.000000,1.000000,41.666668
1601229312.045432,85.000000,0.000000,3909.230713,4652.820313,4143.077148,4283.589844,3986.666748,4594.358887,3966.666748,3868.205078,4335.384766,3992.307617,4242.563965,4152.820313,4105.128418,3997.435791,346.000000,4.000000,,,,0.000000,2.000000,4.000000,4.000000,4.000000,4.000000,4.000000,4.000000,4.000000,4.000000,4.000000,2.000000,4.000000,4.000000,1.000000,41.666668
1601229312.053153,86.000000,0.000000,3901.538574,4649.230957,4139.487305,4274.358887,3979.487061,4585.641113,3957.948730,3861.538574,4326.153809,3980.000000,4232.307617,4147.179688,4091.281982,3991.794922,427.000000,4.000000,,,,0.000000,2.000000,4.000000,4.000000,4.000000,4.000000,4.000000,4.000000,4.000000,4.000000,4.000000,2.000000,4.000000,4.000000,1.000000,41.666668
1601229312.060974,87.000000,0.000000,3899.487061,4642.563965,4140.000000,4264.102539,3979.487061,4585.641113,3958.461426,3864.615479,4322.563965,3973.333252,4230.256348,4146.153809,4093.846191,3990.256348,43.000000,4.000000,,,,0.000000,2.000000,4.000000,4.000000,4.000000,4.000000,4.000000,4.000000,4.000000,4.000000,4.000000,2.000000,4.000000,4.000000,1.000000,41.666668
1601229312.068694,88.000000,0.000000,3900.000000,4649.230957,4136.922852,4274.358887,3989.230713,4589.230957,3959.487061,3864.615479,4324.102539,3980.000000,4236.410156,4147.179688,4103.589844,3991.794922,246.000000,4.000000,,,,0.000000,2.000000,4.000000,4.000000,4.000000,4.000000,4.000000,4.000000,4.000000,4.000000,4.000000,2.000000,4.000000,4.000000,1.000000,41.666668
1601229312.076515,89.000000,0.000000,3901.538574,4653.333496,4140.000000,4283.589844,3993.333252,4587.692383,3957.435791,3858.974365,4322.563965,3982.051270,4234.358887,4143.589844,4104.615234,3990.769287,346.000000,4.000000,,,,0.000000,2.000000,4.000000,4.000000,4.000000,4.000000,4.000000,4.000000,4.000000,4.000000,4.000000,2.000000,4.000000,4.000000,1.000000,41.666668
1601229312.084236,90.000000,0.000000,3904.615479,4638.461426,4148.717773,4273.333496,3984.102539,4585.128418,3955.384521,3857.435791,4316.922852,3975.384521,4231.794922,4143.077148,4102.051270,3989.230713,427.000000,4.000000,,,,0.000000,2.000000,4.000000,4.000000,4.000000,4.000000,4.000000,4.000000,4.000000,4.000000,4.000000,2.000000,4.000000,4.000000,1.000000,41.666668
1601229312.092056,91.000000,0.000000,3908.205078,4641.538574,4147.179688,4271.794922,3983.589844,4592.307617,3961.025635,3865.128174,4318.461426,3978.974365,4238.974121,4150.256348,4105.128418,3997.435791,43.000000,4.000000,,,,0.000000,2.000000,4.000000,4.000000,4.000000,4.000000,4.000000,4.000000,4.000000,4.000000,4.000000,2.000000,4.000000,4.000000,1.000000,41.666668
1601229312.099777,92.000000,0.000000,3910.769287,4661.025879,4143.589844,4282.051270,3994.358887,4599.487305,3966.666748,3870.256348,4327.179688,3990.769287,4244.102539,4156.410156,4110.769043,4011.281982,246.000000,4.000000,,,,0.000000,2.000000,4.000000,4.000000,4.000000,4.000000,4.000000,4.000000,4.000000,4.000000,4.000000,2.000000,4.000000,4.000000,1.000000,41.666668
1601229312.107598,93.000000,0.000000,3910.769287,4654.871582,4145.128418,4278.974121,3990.256348,4593.333496,3961.025635,3866.666748,4328.717773,3989.230713,4235.897461,4152.820313,4105.641113,4008.205078,346.000000,4.000000,,,,0.000000,2.000000,4.000000,4.000000,4.000000,4.000000,4.000000,4.000000,4.000000,4.000000,4.000000,2.000000,4.000000,4.000000,1.000000,41.666668
1601229312.115318,94.000000,0.000000,3905.128174,4634.871582,4141.025879,4267.692383,3979.487061,4587.179688,3957.435791,3865.128174,4322.563965,3981.025635,4230.256348,4146.153809,4096.410156,3994.871826,427.000000,4.000000,,,,0.000000,2.000000,4.000000,4.000000,4.000000,4.000000,4.000000,4.000000,4.000000,4.000000,4.000000,2.000000,4.000000,4.000000,1.000000,41.666668
1601229312.123139,95.000000,0.000000,3898.461426,4632.820313,4136.410156,4263.077148,3979.487061,4587.179688,3961.025635,3868.205078,4321.538574,3981.025635,4234.358887,4145.641113,4093.846191,3988.718018,43.000000,4.000000,,,,0.000000,2.000000,4.000000,4.000000,4.000000,4.000000,4.000000,4.000000,4.000000,4.000000,4.000000,2.000000,4.000000,4.000000,1.000000,41.666668
1601229312.130859,96.000000,0.000000,3896.410156,4634.871582,4137.948730,4263.077148,3980.512939,4581.538574,3957.948730,3866.666748,4324.615234,3981.538574,4233.846191,4145.641113,4091.281982,3989.743652,246.000000,4.000000,,,,0.000000,2.000000,4.000000,4.000000,4.000000,4.000000,4.000000,4.000000,4.000000,4.000000,4.000000,2.000000,4.000000,4.000000,1.000000,41.666668
1601229312.138680,97.000000,0.000000,3899.487061,4633.333496,4139.487305,4264.102539,3978.461426,4577.948730,3950.769287,3861.025635,4321.538574,3976.410156,4227.179688,4142.563965,4088.205078,3990.256348,346.000000,4.000000,,,,0.000000,2.000000,4.000000,4.000000,4.000000,4.000000,4.000000,4.000000,4.000000,4.000000,4.000000,2.000000,4.000000,4.000000,1.000000,41.666668
1601229312.146400,98.000000,0.000000,3904.102539,4643.589844,4138.461426,4275.897461,3988.205078,4592.307617,3960.000000,3865.641113,4324.615234,3982.051270,4234.871582,4146.153809,4100.000000,3988.718018,427.000000,4.000000,,,,0.000000,2.000000,4.000000,4.000000,4.000000,4.000000,4.000000,4.000000,4.000000,4.000000,4.000000,2.000000,4.000000,4.000000,1.000000,41.666668
1601229312.154321,99.000000,0.000000,3903.076904,4649.743652,4138.461426,4281.538574,3997.435791,4596.410156,3964.102539,3871.281982,4331.282227,3988.718018,4244.615234,4149.743652,4109.230957,3988.205078,43.000000,4.000000,,,,0.000000,2.000000,4.000000,4.000000,4.000000,4.000000,4.000000,4.000000,4.000000,4.000000,4.000000,2.000000,4.000000,4.000000,1.000000,41.666668
1601229312.162142,100.000000,0.000000,3903.589844,4649.743652,4138.461426,4270.256348,3997.435791,4587.179688,3957.435791,3869.743652,4333.333496,3987.179443,4241.538574,4148.717773,4106.153809,3988.205078,246.000000,4.000000,,,,0.000000,2.000000,4.000000,4.000000,4.000000,4.000000,4.000000,4.000000,4.000000,4.000000,4.000000,2.000000,4.000000,4.000000,1.000000,41.666668
1601229312.170063,101.000000,0.000000,3903.589844,4646.666504,4135.384766,4264.102539,3991.281982,4581.538574,3950.769287,3864.102539,4327.179688,3978.461426,4234.358887,4143.589844,4095.897461,3988.718018,346.000000,4.000000,,,,0.000000,2.000000,4.000000,4.000000,4.000000,4.000000,4.000000,4.000000,4.000000,4.000000,4.000000,2.000000,4.000000,4.000000,1.000000,41.666668
1601229312.177883,102.000000,0.000000,3898.974365,4637.948730,4128.717773,4273.333496,3987.179443,4580.000000,3948.205078,3859.487061,4322.051270,3971.281982,4231.794922,4140.512695,4092.307617,3987.692383,427.000000,4.000000,,,,0.000000,2.000000,4.000000,4.000000,4.000000,4.000000,4.000000,4.000000,4.000000,4.000000,4.000000,2.000000,4.000000,4.000000,1.000000,41.666668
1601229312.185804,103.000000,0.000000,3902.564209,4629.743652,4131.282227,4277.948730,3988.205078,4582.051270,3953.333252,3861.538574,4323.077148,3972.307617,4231.794922,4142.563965,4098.461426,3989.230713,43.000000,4.000000,,,,0.000000,2.000000,4.000000,4.000000,4.000000,4.000000,4.000000,4.000000,4.000000,4.000000,4.000000,2.000000,4.000000,4.000000,1.000000,41.666668
1601229312.193625,104.000000,0.000000,3910.769287,4639.487305,4140.512695,4274.871582,3993.846191,4594.871582,3964.102539,3869.743652,4332.307617,3982.564209,4237.948730,4148.717773,4106.666504,3986.666748,246.000000,4.000000,,,,0.000000,2.000000,4.000000,4.000000,4.000000,4.000000,4.000000,4.000000,4.000000,4.000000,4.000000,2.000000,4.000000,4.000000,1.000000,41.666668
1601229312.201546,105.000000,0.000000,3906.666748,4648.717773,4136.410156,4270.769043,3991.794922,4595.384766,3961.538574,3868.718018,4330.769043,3984.102539,4240.512695,4149.230957,4098.974121,3987.692383,346.000000,4.000000,,,,0.000000,2.000000,4.000000,4.000000,4.000000,4.000000,4.000000,4.000000,4.000000,4.000000,4.000000,2.000000,4.000000,4.000000,1.000000,41.666668
1601229312.209367,106.000000,0.000000,3906.153809,4643.589844,4134.358887,4267.692383,3985.641113,4583.589844,3953.846191,3866.153809,4320.512695,3977.948730,4235.384766,4148.717773,4093.846191,3989.230713,427.000000,4.000000,,,,0.000000,2.000000,4.000000,4.000000,4.000000,4.000000,4.000000,4.000000,4.000000,4.000000,4.000000,2.000000,4.000000,4.000000,1.000000,41.666668
1601229312.217287,107.000000,0.000000,3913.333252,4635.897461,4140.000000,4267.179688,3981.538574,4582.563965,3956.410156,3867.179443,4319.487305,3973.846191,4231.282227,4149.230957,4096.410156,3991.281982,43.000000,4.000000,,,,0.000000,2.000000,4.000000,4.000000,4.000000,4.000000,4.000000,4.000000,4.000000,4.000000,4.000000,2.000000,4.000000,4.000000,1.000000,41.666668
1601229312.225108,108.000000,0.000000,3911.281982,4634.871582,4137.948730,4268.205078,3981.538574,4586.666504,3961.025635,3864.102539,4322.563965,3971.794922,4229.743652,4146.666504,4091.794922,3988.718018,246.000000,4.000000,,,,0.000000,2.000000,4.000000,4.000000,4.000000,4.000000,4.000000,4.000000,4.000000,4.000000,4.000000,2.000000,4.000000,4.000000,1.000000,41.666668
1601229312.232929,109.000000,0.000000,3907.179443,4635.897461,4136.922852,4265.128418,3985.128174,4588.717773,3962.051270,3861.538574,4321.538574,3974.871826,4229.230957,4147.692383,4091.281982,3986.666748,346.000000,4.000000,,,,0.000000,2.000000,4.000000,4.000000,4.000000,4.000000,4.000000,4.000000,4.000000,4.000000,4.000000,2.000000,4.000000,4.000000,1.000000,41.666668
1601229312.240749,110.000000,0.000000,3907.692383,4634.358887,4143.077148,4261.025879,3986.153809,4592.307617,3965.641113,3866.153809,4321.538574,3977.948730,4229.743652,4148.717773,4093.846191,3984.102539,427.000000,4.000000,,,,0.000000,2.000000,4.000000,4.000000,4.000000,4.000000,4.000000,4.000000,4.000000,4.000000,4.000000,2.000000,4.000000,4.000000,1.000000,41.666668
1601229312.248470,111.000000,0.000000,3910.256348,4635.384766,4145.128418,4262.051270,3986.153809,4595.897461,3969.230713,3870.256348,4326.153809,3980.512939,4235.384766,4148.717773,4096.922852,3983.589844,43.000000,4.000000,,,,0.000000,2.000000,4.000000,4.000000,4.000000,4.000000,4.000000,4.000000,4.000000,4.000000,4.000000,2.000000,4.000000,4.000000,1.000000,41.666668
1601229312.256291,112.000000,0.000000,3911.794922,4637.948730,4142.051270,4269.230957,3986.666748,4595.384766,3967.179443,3868.718018,4327.179688,3981.025635,4234.358887,4147.179688,4098.461426,3992.820557,246.000000,4.000000,,,,0.000000,2.000000,4.000000,4.000000,4.000000,4.000000,4.000000,4.000000,4.000000,4.000000,4.000000,2.000000,4.000000,4.000000,1.000000,41.666668
1601229312.264011,113.000000,0.000000,3905.641113,4640.512695,4137.436035,4265.641113,3986.666748,4589.743652,3960.512939,3865.128174,4323.077148,3974.358887,4226.666504,4142.051270,4092.307617,4002.051270,346.000000,4.000000,,,,0.000000,2.000000,4.000000,4.000000,4.000000,4.000000,4.000000,4.000000,4.000000,4.000000,4.000000,2.000000,4.000000,4.000000,1.000000,41.666668
1601229312.271832,114.000000,0.000000,3899.487061,4636.410156,4133.846191,4254.358887,3986.153809,4585.641113,3955.897461,3862.564209,4318.974121,3965.128174,4226.153809,4137.948730,4084.615479,3995.897461,427.000000,4.000000,,,,0.000000,2.000000,4.000000,4.000000,4.000000,4.000000,4.000000,4.000000,4.000000,4.000000,4.000000,2.000000,4.000000,4.000000,1.000000,41.666668
1601229312.279553,115.000000,0.000000,3900.512939,4630.769043,4135.384766,4260.000000,3988.205078,4587.179688,3957.435791,3863.589844,4321.538574,3971.794922,4229.743652,4138.974121,4085.128174,3983.076904,43.000000,4.000000,,,,0.000000,2.000000,4.000000,4.000000,4.000000,4.000000,4.000000,4.000000,4.000000,4.000000,4.000000,2.000000,4.000000,4.000000,1.000000,41.666668
1601229312.287373,116.000000,0.000000,3903.589844,4633.333496,4135.384766,4267.692383,3985.128174,4584.102539,3956.410156,3863.589844,4322.051270,3977.948730,4226.153809,4136.922852,4084.615479,3981.025635,246.000000,4.000000,,,,0.000000,2.000000,4.000000,4.000000,4.000000,4.000000,4.000000,4.000000,4.000000,4.000000,4.000000,2.000000,4.000000,4.000000,1.000000,41.666668
1601229312.295094,117.000000,0.000000,3902.564209,4641.025879,4132.307617,4265.641113,3986.153809,4588.717773,3964.615479,3868.718018,4326.153809,3978.974365,4224.102539,4136.410156,4084.102539,3981.538574,346.000000,4.000000,,,,0.000000,2.000000,4.000000,4.000000,4.000000,4.000000,4.000000,4.000000,4.000000,4.000000,4.000000,2.000000,4.000000,4.000000,1.000000,41.666668
1601229312.302915,118.000000,0.000000,3903.589844,4643.077148,4135.897461,4265.641113,3990.769287,4602.051270,3974.871826,3872.820557,4338.461426,3985.641113,4230.256348,4141.538574,4092.820557,3978.461426,427.000000,4.000000,,,,0.000000,2.000000,4.000000,4.000000,4.000000,4.000000,4.000000,4.000000,4.000000,4.000000,4.000000,2.000000,4.000000,4.000000,1.000000,41.666668
1601229312.310635,119.000000,0.000000,3903.589844,4642.563965,4137.436035,4267.692383,3986.153809,4593.846191,3965.641113,3864.615479,4336.922852,3984.615479,4234.358887,4141.538574,4091.794922,3981.538574,43.000000,4.000000,,,,0.000000,2.000000,4.000000,4.000000,4.000000,4.000000,4.000000,4.000000,4.000000,4.000000,4.000000,2.000000,4.000000,4.000000,1.000000,41.666668
1601229312.318556,120.000000,0.000000,3898.974365,4636.410156,4133.333496,4260.512695,3976.410156,4572.820313,3944.615479,3852.820557,4314.871582,3967.179443,4226.666504,4135.384766,4077.948730,3993.333252,246.000000,4.000000,,,,0.000000,2.000000,4.000000,4.000000,4.000000,4.000000,4.000000,4.000000,4.000000,4.000000,4.000000,2.000000,4.000000,4.000000,1.000000,41.666668
1601229312.326377,121.000000,0.000000,3903.076904,4635.897461,4138.974121,4264.615234,3984.102539,4583.077148,3952.307617,3860.512939,4314.358887,3968.205078,4221.538574,4138.461426,4083.589844,4002.564209,346.000000,4.000000,,,,0.000000,2.000000,4.000000,4.000000,4.000000,4.000000,4.000000,4.000000,4.000000,4.000000,4.000000,2.000000,4.000000,4.000000,1.000000,41.666668
1601229312.334297,122.000000,0.000000,3912.307617,4648.205078,4143.077148,4276.410156,3995.897461,4598.974121,3967.692383,3870.256348,4331.794922,3984.615479,4226.666504,4148.205078,4098.461426,4008.205078,427.000000,4.000000,,,,0.000000,2.000000,4.000000,4.000000,4.000000,4.000000,4.000000,4.000000,4.000000,4.000000,4.000000,2.000000,4.000000,4.000000,1.000000,41.666668
1601229312.342118,123.000000,0.000000,3914.871826,4655.897461,4141.025879,4278.974121,3995.897461,4592.307617,3961.538574,3868.718018,4333.333496,3988.718018,4233.846191,4153.846191,4099.487305,4013.333252,43.000000,4.000000,,,,0.000000,2.000000,4.000000,4.000000,4.000000,4.000000,4.000000,4.000000,4.000000,4.000000,4.000000,2.000000,4.000000,4.000000,1.000000,41.666668
1601229312.350039,124.000000,0.000000,3910.769287,4645.128418,4141.025879,4271.794922,3990.256348,4585.641113,3951.794922,3862.564209,4324.102539,3985.128174,4233.846191,4152.307617,4093.846191,4025.128174,246.000000,4.000000,,,,0.000000,2.000000,4.000000,4.000000,4.000000,4.000000,4.000000,4.000000,4.000000,4.000000,4.000000,2.000000,4.000000,4.000000,1.000000,41.666668
1601229312.357860,125.000000,0.000000,3910.256348,4636.922852,4143.077148,4266.153809,3987.692383,4589.743652,3956.410156,3860.512939,4323.589844,3987.692383,4231.794922,4151.794922,4094.871826,4031.281982,346.000000,4.000000,,,,0.000000,2.000000,4.000000,4.000000,4.000000,4.000000,4.000000,4.000000,4.000000,4.000000,4.000000,2.000000,4.000000,4.000000,1.000000,41.666668
1601229312.365781,126.000000,0.000000,3913.333252,4639.487305,4143.589844,4266.666504,3987.692383,4591.794922,3965.128174,3863.589844,4325.641113,3985.128174,4234.871582,4153.846191,4096.410156,4022.564209,427.000000,4.000000,,,,0.000000,2.000000,4.000000,4.000000,4.000000,4.000000,4.000000,4.000000,4.000000,4.000000,4.000000,2.000000,4.000000,4.000000,1.000000,41.666668
1601229312.373601,127.000000,0.000000,3912.307617,4638.974121,4142.563965,4270.769043,3985.128174,4590.769043,3964.615479,3867.179443,4324.102539,3979.487061,4236.410156,4150.769043,4093.333252,4010.769287,43.000000,4.000000,,,,0.000000,2.000000,4.000000,4.000000,4.000000,4.000000,4.000000,4.000000,4.000000,4.000000,4.000000,2.000000,4.000000,4.000000,1.000000,41.666668
1601229312.381522,128.000000,0.000000,3908.205078,4639.487305,4140.000000,4263.589844,3981.025635,4591.794922,3966.666748,3870.256348,4324.615234,3980.512939,4233.846191,4145.641113,4091.281982,4007.179443,246.000000,4.000000,,,,0.000000,2.000000,4.000000,4.000000,4.000000,4.000000,4.000000,4.000000,4.000000,4.000000,4.000000,2.000000,4.000000,4.000000,1.000000,41.666668
1601229312.389343,0.000000,0.000000,3906.666748,4642.051270,4139.487305,4252.307617,3981.025635,4593.846191,3973.846191,3871.281982,4327.179688,3980.512939,4227.179688,4144.102539,4084.102539,4006.666748,376.000000,4.000000,,,,0.000000,2.000000,4.000000,4.000000,4.000000,4.000000,4.000000,4.000000,4.000000,4.000000,4.000000,2.000000,4.000000,4.000000,1.000000,41.666668
1601229312.397264,1.000000,0.000000,3912.820557,4647.179688,4140.000000,4263.077148,3991.794922,4592.307617,3972.820557,3872.307617,4334.871582,3984.102539,4229.230957,4144.102539,4084.102539,4003.589844,433.000000,4.000000,,,,0.000000,2.000000,4.000000,4.000000,4.000000,4.000000,4.000000,4.000000,4.000000,4.000000,4.000000,2.000000,4.000000,4.000000,1.000000,41.666668
1601229312.405084,2.000000,0.000000,3915.897461,4649.743652,4142.563965,4278.974121,3997.435791,4585.128418,3961.025635,3868.718018,4336.922852,3988.718018,4239.487305,4148.717773,4094.358887,4007.179443,383.000000,4.000000,,,,0.000000,2.000000,4.000000,4.000000,4.000000,4.000000,4.000000,4.000000,4.000000,4.000000,4.000000,2.000000,4.000000,4.000000,1.000000,41.666668
1601229312.412805,3.000000,0.000000,3914.358887,4653.333496,4149.230957,4283.589844,3999.487061,4588.205078,3962.564209,3869.230713,4333.846191,3995.897461,4243.589844,4153.846191,4101.025879,4005.128174,430.000000,4.000000,,,,0.000000,2.000000,4.000000,4.000000,4.000000,4.000000,4.000000,4.000000,4.000000,4.000000,4.000000,2.000000,4.000000,4.000000,1.000000,41.666668
1601229312.420625,4.000000,0.000000,3908.718018,4654.358887,4143.589844,4281.025879,3999.487061,4596.410156,3968.205078,3872.820557,4331.282227,3997.948730,4234.871582,4149.743652,4096.922852,3989.743652,459.000000,4.000000,,,,0.000000,2.000000,4.000000,4.000000,4.000000,4.000000,4.000000,4.000000,4.000000,4.000000,4.000000,2.000000,4.000000,4.000000,1.000000,41.666668
1601229312.428346,5.000000,0.000000,3903.589844,4654.871582,4132.820313,4278.974121,3997.435791,4595.897461,3964.615479,3873.846191,4332.820313,3995.384521,4228.717773,4146.153809,4093.846191,3978.974365,436.000000,4.000000,,,,0.000000,2.000000,4.000000,4.000000,4.000000,4.000000,4.000000,4.000000,4.000000,4.000000,4.000000,2.000000,4.000000,4.000000,1.000000,41.666668
1601229312.436167,6.000000,0.000000,3904.615479,4651.794922,4137.436035,4271.794922,3993.333252,4590.769043,3960.000000,3871.281982,4331.794922,3996.410156,4232.820313,4148.717773,4096.410156,3982.051270,448.000000,4.000000,,,,0.000000,2.000000,4.000000,4.000000,4.000000,4.000000,4.000000,4.000000,4.000000,4.000000,4.000000,2.000000,4.000000,4.000000,1.000000,41.666668
1601229312.443888,7.000000,0.000000,3908.718018,4651.282227,4145.641113,4273.333496,3994.871826,4591.282227,3958.974365,3869.743652,4331.794922,4001.025635,4237.948730,4151.282227,4100.512695,3984.102539,353.000000,4.000000,,,,0.000000,2.000000,4.000000,4.000000,4.000000,4.000000,4.000000,4.000000,4.000000,4.000000,4.000000,2.000000,4.000000,4.000000,1.000000,41.666668
1601229312.451708,8.000000,0.000000,3910.769287,4651.282227,4143.589844,4275.897461,3996.410156,4589.230957,3957.435791,3869.743652,4329.230957,3997.948730,4239.487305,4151.282227,4103.077148,3985.128174,402.000000,4.000000,,,,0.000000,2.000000,4.000000,4.000000,4.000000,4.000000,4.000000,4.000000,4.000000,4.000000,4.000000,2.000000,4.000000,4.000000,1.000000,41.666668
1601229312.459429,9.000000,0.000000,3917.435791,4650.769043,4148.205078,4271.794922,3994.358887,4588.205078,3962.051270,3870.769287,4329.230957,3995.384521,4241.538574,4155.384766,4108.717773,3985.128174,404.000000,4.000000,,,,0.000000,2.000000,4.000000,4.000000,4.000000,4.000000,4.000000,4.000000,4.000000,4.000000,4.000000,2.000000,4.000000,4.000000,1.000000,41.666668
1601229312.467249,10.000000,0.000000,3924.615479,4652.307617,4155.897461,4273.846191,3991.794922,4588.717773,3963.589844,3871.794922,4332.820313,4001.025635,4243.077148,4158.974121,4107.179688,3987.179443,424.000000,4.000000,,,,0.000000,2.000000,4.000000,4.000000,4.000000,4.000000,4.000000,4.000000,4.000000,4.000000,4.000000,2.000000,4.000000,4.000000,1.000000,41.666668
1601229312.474970,11.000000,0.000000,3923.589844,4649.230957,4153.333496,4280.000000,3998.974365,4591.282227,3958.461426,3872.820557,4330.769043,4004.615479,4243.589844,4160.000000,4101.538574,3991.281982,49.000000,4.000000,,,,0.000000,2.000000,4.000000,4.000000,4.000000,4.000000,4.000000,4.000000,4.000000,4.000000,4.000000,2.000000,4.000000,4.000000,1.000000,41.666668
1601229312.482791,12.000000,0.000000,3921.025635,4642.563965,4149.230957,4275.384766,4008.205078,4593.846191,3961.025635,3872.820557,4327.692383,4003.076904,4244.102539,4161.538574,4104.102539,3994.871826,245.000000,4.000000,,,,0.000000,2.000000,4.000000,4.000000,4.000000,4.000000,4.000000,4.000000,4.000000,4.000000,4.000000,2.000000,4.000000,4.000000,1.000000,41.666668
1601229312.490511,13.000000,0.000000,3926.666748,4645.128418,4152.820313,4268.717773,4003.076904,4594.358887,3967.179443,3870.769287,4333.846191,4002.564209,4244.615234,4162.563965,4109.743652,3990.769287,346.000000,4.000000,,,,0.000000,2.000000,4.000000,4.000000,4.000000,4.000000,4.000000,4.000000,4.000000,4.000000,4.000000,2.000000,4.000000,4.000000,1.000000,41.666668
1601229312.498332,14.000000,0.000000,3927.692383,4657.948730,4152.307617,4275.897461,3992.820557,4595.384766,3965.641113,3870.769287,4337.436035,4004.102539,4241.025879,4160.512695,4108.717773,3989.230713,424.000000,4.000000,,,,0.000000,2.000000,4.000000,4.000000,4.000000,4.000000,4.000000,4.000000,4.000000,4.000000,4.000000,2.000000,4.000000,4.000000,1.000000,41.666668
1601229312.506052,15.000000,0.000000,3917.435791,4665.128418,4142.563965,4284.615234,3994.358887,4594.871582,3960.000000,3871.794922,4332.820313,4003.076904,4235.897461,4154.871582,4104.102539,3986.153809,49.000000,4.000000,,,,0.000000,2.000000,4.000000,4.000000,4.000000,4.000000,4.000000,4.000000,4.000000,4.000000,4.000000,2.000000,4.000000,4.000000,1.000000,41.666668
1601229312.513973,16.000000,0.000000,3910.256348,4657.436035,4136.410156,4277.948730,4000.512939,4592.307617,3958.461426,3870.769287,4330.769043,3999.487061,4235.897461,4149.230957,4101.025879,3983.076904,0.000000,4.000000,,,,0.000000,2.000000,4.000000,4.000000,4.000000,4.000000,4.000000,4.000000,4.000000,4.000000,4.000000,2.000000,4.000000,4.000000,1.000000,41.666668
1601229312.521794,17.000000,0.000000,3911.281982,4647.692383,4139.487305,4267.692383,3996.923096,4588.717773,3956.410156,3866.666748,4328.205078,3994.871826,4234.871582,4148.717773,4097.436035,3985.128174,0.000000,4.000000,,,,0.000000,2.000000,4.000000,4.000000,4.000000,4.000000,4.000000,4.000000,4.000000,4.000000,4.000000,2.000000,4.000000,4.000000,1.000000,41.666668
1601229312.529714,18.000000,0.000000,3909.230713,4650.769043,4137.436035,4270.256348,3996.923096,4587.179688,3954.871826,3866.666748,4326.666504,3993.846191,4234.358887,4148.205078,4097.948730,3981.025635,0.000000,4.000000,,,,0.000000,2.000000,4.000000,4.000000,4.000000,4.000000,4.000000,4.000000,4.000000,4.000000,4.000000,2.000000,4.000000,4.000000,1.000000,41.666668
1601229312.537535,19.000000,0.000000,3907.692383,4652.307617,4132.307617,4273.333496,3997.435791,4582.563965,3952.307617,3867.692383,4325.128418,3986.666748,4233.846191,4146.153809,4100.512695,3985.128174,0.000000,4.000000,,,,0.000000,2.000000,4.000000,4.000000,4.000000,4.000000,4.000000,4.000000,4.000000,4.000000,4.000000,2.000000,4.000000,4.000000,1.000000,41.666668
1601229312.545456,20.000000,0.000000,3915.384521,4651.794922,4138.461426,4274.871582,3996.410156,4582.051270,3951.794922,3868.205078,4324.615234,3983.589844,4234.358887,4148.205078,4104.615234,4002.564209,0.000000,4.000000,,,,0.000000,2.000000,4.000000,4.000000,4.000000,4.000000,4.000000,4.000000,4.000000,4.000000,4.000000,2.000000,4.000000,4.000000,1.000000,41.666668
1601229312.553277,21.000000,0.000000,3922.051270,4655.897461,4147.179688,4280.512695,3991.794922,4586.153809,3954.871826,3868.205078,4325.128418,3987.179443,4235.897461,4152.307617,4106.153809,4006.153809,0.000000,4.000000,,,,0.000000,2.000000,4.000000,4.000000,4.000000,4.000000,4.000000,4.000000,4.000000,4.000000,4.000000,2.000000,4.000000,4.000000,1.000000,41.666668
1601229312.561198,22.000000,0.000000,3925.128174,4660.512695,4147.179688,4287.179688,3990.769287,4591.282227,3958.974365,3869.230713,4329.743652,3988.205078,4236.922852,4153.846191,4106.666504,3991.794922,0.000000,4.000000,,,,0.000000,2.000000,4.000000,4.000000,4.000000,4.000000,4.000000,4.000000,4.000000,4.000000,4.000000,2.000000,4.000000,4.000000,1.000000,41.666668
1601229312.569018,23.000000,0.000000,3926.153809,4654.871582,4143.589844,4288.205078,3990.769287,4591.282227,3955.897461,3866.153809,4327.179688,3982.564209,4236.410156,4152.307617,4105.641113,3992.307617,0.000000,4.000000,,,,0.000000,2.000000,4.000000,4.000000,4.000000,4.000000,4.000000,4.000000,4.000000,4.000000,4.000000,2.000000,4.000000,4.000000,1.000000,41.666668
1601229312.576939,24.000000,0.000000,3924.102539,4649.743652,4147.692383,4284.615234,3990.256348,4589.743652,3957.435791,3863.589844,4326.153809,3981.538574,4237.948730,4153.846191,4101.538574,4000.512939,0.000000,4.000000,,,,0.000000,2.000000,4.000000,4.000000,4.000000,4.000000,4.000000,4.000000,4.000000,4.000000,4.000000,2.000000,4.000000,4.000000,1.000000,41.666668
1601229312.584760,25.000000,0.000000,3923.076904,4646.153809,4149.230957,4281.025879,3989.743652,4593.333496,3966.153809,3865.128174,4330.256348,3982.564209,4233.846191,4152.820313,4097.948730,3998.461426,0.000000,4.000000,,,,0.000000,2.000000,4.000000,4.000000,4.000000,4.000000,4.000000,4.000000,4.000000,4.000000,4.000000,2.000000,4.000000,4.000000,1.000000,41.666668
1601229312.592580,26.000000,0.000000,3922.564209,4645.641113,4143.077148,4284.102539,3988.718018,4598.974121,3970.256348,3868.205078,4331.794922,3983.589844,4228.205078,4148.205078,4101.025879,3995.897461,0.000000,4.000000,,,,0.000000,2.000000,4.000000,4.000000,4.000000,4.000000,4.000000,4.000000,4.000000,4.000000,4.000000,2.000000,4.000000,4.000000,1.000000,41.666668
1601229312.600401,27.000000,0.000000,3920.000000,4649.230957,4139.487305,4285.128418,3990.769287,4596.922852,3966.153809,3868.718018,4331.794922,3992.820557,4233.333496,4149.743652,4105.641113,4002.051270,0.000000,4.000000,,,,0.000000,2.000000,4.000000,4.000000,4.000000,4.000000,4.000000,4.000000,4.000000,4.000000,4.000000,2.000000,4.000000,4.000000,1.000000,41.666668
1601229312.608121,28.000000,0.000000,3918.461426,4649.743652,4142.563965,4280.000000,3997.948730,4597.436035,3967.692383,3871.794922,4336.922852,4005.128174,4241.025879,4151.794922,4112.820313,4004.102539,0.000000,4.000000,,,,0.000000,2.000000,4.000000,4.000000,4.000000,4.000000,4.000000,4.000000,4.000000,4.000000,4.000000,2.000000,4.000000,4.000000,1.000000,41.666668
1601229312.615942,29.000000,0.000000,3914.358887,4642.051270,4142.051270,4275.897461,3995.384521,4596.922852,3965.128174,3869.230713,4335.897461,4001.538574,4234.871582,4144.615234,4111.794922,4000.000000,0.000000,4.000000,,,,0.000000,2.000000,4.000000,4.000000,4.000000,4.000000,4.000000,4.000000,4.000000,4.000000,4.000000,2.000000,4.000000,4.000000,1.000000,41.666668
1601229312.623663,30.000000,0.000000,3911.281982,4640.512695,4138.461426,4280.000000,3984.615479,4584.615234,3952.307617,3863.076904,4322.051270,3986.666748,4227.179688,4140.000000,4097.948730,3998.461426,0.000000,4.000000,,,,0.000000,2.000000,4.000000,4.000000,4.000000,4.000000,4.000000,4.000000,4.000000,4.000000,4.000000,2.000000,4.000000,4.000000,1.000000,41.666668
1601229312.631483,31.000000,0.000000,3917.435791,4652.307617,4142.051270,4286.666504,3985.641113,4585.641113,3953.333252,3866.153809,4322.563965,3991.281982,4233.333496,4148.717773,4097.436035,4002.051270,0.000000,4.000000,,,,0.000000,2.000000,4.000000,4.000000,4.000000,4.000000,4.000000,4.000000,4.000000,4.000000,4.000000,2.000000,4.000000,4.000000,1.000000,41.666668
1601229312.639204,32.000000,0.000000,3924.102539,4654.358887,4147.692383,4283.589844,3990.256348,4601.538574,3963.076904,3871.794922,4334.871582,4004.102539,4236.410156,4155.897461,4109.743652,4003.589844,0.000000,4.000000,,,,0.000000,2.000000,4.000000,4.000000,4.000000,4.000000,4.000000,4.000000,4.000000,4.000000,4.000000,2.000000,4.000000,4.000000,1.000000,41.666668
1601229312.647025,33.000000,0.000000,3917.948730,4650.769043,4145.128418,4280.512695,3990.769287,4601.538574,3963.076904,3870.769287,4334.871582,4000.000000,4234.358887,4151.282227,4112.820313,4001.025635,0.000000,4.000000,,,,0.000000,2.000000,4.000000,4.000000,4.000000,4.000000,4.000000,4.000000,4.000000,4.000000,4.000000,2.000000,4.000000,4.000000,1.000000,41.666668
1601229312.654745,34.000000,0.000000,3912.820557,4657.436035,4143.077148,4282.563965,3994.871826,4591.282227,3958.974365,3867.692383,4324.102539,3989.743652,4232.820313,4148.205078,4102.563965,3998.974365,0.000000,4.000000,,,,0.000000,2.000000,4.000000,4.000000,4.000000,4.000000,4.000000,4.000000,4.000000,4.000000,4.000000,2.000000,4.000000,4.000000,1.000000,41.666668
1601229312.662566,35.000000,0.000000,3916.410156,4664.102539,4147.179688,4284.615234,4003.076904,4596.410156,3964.102539,3871.281982,4326.153809,3992.307617,4235.384766,4152.307617,4100.512695,4003.076904,0.000000,4.000000,,,,0.000000,2.000000,4.000000,4.000000,4.000000,4.000000,4.000000,4.000000,4.000000,4.000000,4.000000,2.000000,4.000000,4.000000,1.000000,41.666668
1601229312.670287,36.000000,0.000000,3918.461426,4655.384766,4147.179688,4279.487305,3995.897461,4593.846191,3960.512939,3869.743652,4324.102539,3990.256348,4236.922852,4149.230957,4100.512695,4016.410156,0.000000,4.000000,,,,0.000000,2.000000,4.000000,4.000000,4.000000,4.000000,4.000000,4.000000,4.000000,4.000000,4.000000,2.000000,4.000000,4.000000,1.000000,41.666668
1601229312.678107,37.000000,0.000000,3917.948730,4654.871582,4143.589844,4280.512695,3988.205078,4585.128418,3954.358887,3864.615479,4317.436035,3985.128174,4234.871582,4141.025879,4100.512695,4024.102539,0.000000,4.000000,,,,0.000000,2.000000,4.000000,4.000000,4.000000,4.000000,4.000000,4.000000,4.000000,4.000000,4.000000,2.000000,4.000000,4.000000,1.000000,41.666668
1601229312.685828,38.000000,0.000000,3917.435791,4661.025879,4147.179688,4287.692383,3993.333252,4590.769043,3955.897461,3863.589844,4318.974121,3986.153809,4229.743652,4141.538574,4098.461426,4019.487061,0.000000,4.000000,,,,0.000000,2.000000,4.000000,4.000000,4.000000,4.000000,4.000000,4.000000,4.000000,4.000000,4.000000,2.000000,4.000000,4.000000,1.000000,41.666668
1601229312.693749,39.000000,0.000000,3922.051270,4659.487305,4155.897461,4294.871582,4001.025635,4602.563965,3960.512939,3868.718018,4324.615234,3987.179443,4232.307617,4149.743652,4096.410156,4006.153809,0.000000,4.000000,,,,0.000000,2.000000,4.000000,4.000000,4.000000,4.000000,4.000000,4.000000,4.000000,4.000000,4.000000,2.000000,4.000000,4.000000,1.000000,41.666668
1601229312.701569,40.000000,0.000000,3925.641113,4658.974121,4154.358887,4293.846191,4000.000000,4601.538574,3961.025635,3871.281982,4327.179688,3987.179443,4237.948730,4152.307617,4097.436035,3997.435791,0.000000,4.000000,,,,0.000000,2.000000,4.000000,4.000000,4.000000,4.000000,4.000000,4.000000,4.000000,4.000000,4.000000,2.000000,4.000000,4.000000,1.000000,41.666668
1601229312.709490,41.000000,0.000000,3925.128174,4663.077148,4151.282227,4287.179688,3995.897461,4598.461426,3959.487061,3869.743652,4329.743652,3995.384521,4235.897461,4151.282227,4103.077148,3995.897461,0.000000,4.000000,,,,0.000000,2.000000,4.000000,4.000000,4.000000,4.000000,4.000000,4.000000,4.000000,4.000000,4.000000,2.000000,4.000000,4.000000,1.000000,41.666668
1601229312.717311,42.000000,0.000000,3920.512939,4657.948730,4152.820313,4285.128418,3991.794922,4593.333496,3958.461426,3869.230713,4329.743652,4002.564209,4237.436035,4151.282227,4106.666504,3998.974365,0.000000,4.000000,,,,0.000000,2.000000,4.000000,4.000000,4.000000,4.000000,4.000000,4.000000,4.000000,4.000000,4.000000,2.000000,4.000000,4.000000,1.000000,41.666668
1601229312.725232,43.000000,0.000000,3917.435791,4649.743652,4154.358887,4282.563965,3989.743652,4587.179688,3960.000000,3870.256348,4328.717773,4001.025635,4238.974121,4150.769043,4105.128418,3998.461426,0.000000,4.000000,,,,0.000000,2.000000,4.000000,4.000000,4.000000,4.000000,4.000000,4.000000,4.000000,4.000000,4.000000,2.000000,4.000000,4.000000,1.000000,41.666668
1601229312.733053,44.000000,0.000000,3920.000000,4650.769043,4150.769043,4274.871582,3994.358887,4592.820313,3967.692383,3873.333252,4335.384766,4003.076904,4237.948730,4152.820313,4108.717773,3998.974365,0.000000,4.000000,,,,0.000000,2.000000,4.000000,4.000000,4.000000,4.000000,4.000000,4.000000,4.000000,4.000000,4.000000,2.000000,4.000000,4.000000,1.000000,41.666668
1601229312.740973,45.000000,0.000000,3922.564209,4660.000000,4143.589844,4277.948730,4000.512939,4601.025879,3972.307617,3877.435791,4338.974121,4005.641113,4241.538574,4155.897461,4113.333496,4001.025635,0.000000,4.000000,,,,0.000000,2.000000,4.000000,4.000000,4.000000,4.000000,4.000000,4.000000,4.000000,4.000000,4.000000,2.000000,4.000000,4.000000,1.000000,41.666668
1601229312.748794,46.000000,0.000000,3922.051270,4661.025879,4139.487305,4283.589844,4000.000000,4599.487305,3969.743652,3875.897461,4328.717773,3998.974365,4239.487305,4151.282227,4107.692383,4001.538574,0.000000,4.000000,,,,0.000000,2.000000,4.000000,4.000000,4.000000,4.000000,4.000000,4.000000,4.000000,4.000000,4.000000,2.000000,4.000000,4.000000,1.000000,41.666668
1601229312.756715,47.000000,0.000000,3919.487061,4656.922852,4138.461426,4282.563965,3998.974365,4596.410156,3965.641113,3870.769287,4321.538574,3990.769287,4230.769043,4146.153809,4100.512695,4001.025635,0.000000,4.000000,,,,0.000000,2.000000,4.000000,4.000000,4.000000,4.000000,4.000000,4.000000,4.000000,4.000000,4.000000,2.000000,4.000000,4.000000,1.000000,41.666668
1601229312.764536,48.000000,0.000000,3917.948730,4662.563965,4135.897461,4291.282227,4007.692383,4598.974121,3967.692383,3872.307617,4328.717773,3992.307617,4234.358887,4148.205078,4100.512695,3997.435791,0.000000,4.000000,,,,0.000000,2.000000,4.000000,4.000000,4.000000,4.000000,4.000000,4.000000,4.000000,4.000000,4.000000,2.000000,4.000000,4.000000,1.000000,41.666668
1601229312.772456,49.000000,0.000000,3913.846191,4668.717773,4129.230957,4297.436035,4008.205078,4597.948730,3963.076904,3871.794922,4326.153809,3987.179443,4235.384766,4143.077148,4097.436035,3993.333252,0.000000,4.000000,,,,0.000000,2.000000,4.000000,4.000000,4.000000,4.000000,4.000000,4.000000,4.000000,4.000000,4.000000,2.000000,4.000000,4.000000,1.000000,41.666668
1601229312.780277,50.000000,0.000000,3908.718018,4663.589844,4122.051270,4284.615234,3995.384521,4589.743652,3953.846191,3864.102539,4314.871582,3976.410156,4222.563965,4133.333496,4089.230713,3998.974365,0.000000,4.000000,,,,0.000000,2.000000,4.000000,4.000000,4.000000,4.000000,4.000000,4.000000,4.000000,4.000000,4.000000,2.000000,4.000000,4.000000,1.000000,41.666668
1601229312.788097,51.000000,0.000000,3913.333252,4660.000000,4125.641113,4278.461426,3995.897461,4586.666504,3955.384521,3866.666748,4317.948730,3978.461426,4223.589844,4135.897461,4091.281982,4010.256348,0.000000,4.000000,,,,0.000000,2.000000,4.000000,4.000000,4.000000,4.000000,4.000000,4.000000,4.000000,4.000000,4.000000,2.000000,4.000000,4.000000,1.000000,41.666668
1601229312.795918,52.000000,0.000000,3924.102539,4667.692383,4135.384766,4289.743652,4006.153809,4594.871582,3962.564209,3874.358887,4331.282227,3992.820557,4235.897461,4145.641113,4099.487305,4006.153809,0.000000,4.000000,,,,0.000000,2.000000,4.000000,4.000000,4.000000,4.000000,4.000000,4.000000,4.000000,4.000000,4.000000,2.000000,4.000000,4.000000,1.000000,41.666668
1601229312.803641,53.000000,0.000000,3927.179443,4665.128418,4140.512695,4289.743652,4000.512939,4598.974121,3961.025635,3869.743652,4329.230957,3995.897461,4233.846191,4147.179688,4096.922852,3993.846191,0.000000,4.000000,,,,0.000000,2.000000,4.000000,4.000000,4.000000,4.000000,4.000000,4.000000,4.000000,4.000000,4.000000,2.000000,4.000000,4.000000,1.000000,41.666668
1601229312.811464,54.000000,0.000000,3923.076904,4654.358887,4140.000000,4286.666504,3989.230713,4592.307617,3960.512939,3867.692383,4325.641113,3991.794922,4229.230957,4146.153809,4094.871826,3989.743652,0.000000,4.000000,,,,0.000000,2.000000,4.000000,4.000000,4.000000,4.000000,4.000000,4.000000,4.000000,4.000000,4.000000,2.000000,4.000000,4.000000,1.000000,41.666668
1601229312.819287,55.000000,0.000000,3919.487061,4653.333496,4136.922852,4285.641113,3985.128174,4584.615234,3961.025635,3869.230713,4327.179688,3991.281982,4230.769043,4146.153809,4095.384521,3993.333252,0.000000,4.000000,,,,0.000000,2.000000,4.000000,4.000000,4.000000,4.000000,4.000000,4.000000,4.000000,4.000000,4.000000,2.000000,4.000000,4.000000,1.000000,41.666668
1601229312.827110,56.000000,0.000000,3921.025635,4658.461426,4135.384766,4276.410156,3990.256348,4588.205078,3960.000000,3866.666748,4327.692383,3995.897461,4233.333496,4147.692383,4096.410156,3990.256348,0.000000,4.000000,,,,0.000000,2.000000,4.000000,4.000000,4.000000,4.000000,4.000000,4.000000,4.000000,4.000000,4.000000,2.000000,4.000000,4.000000,1.000000,41.666668
1601229312.834933,57.000000,0.000000,3918.974365,4651.794922,4133.333496,4265.641113,3989.743652,4588.717773,3961.538574,3866.153809,4327.179688,3996.410156,4233.846191,4150.769043,4097.948730,3985.641113,0.000000,4.000000,,,,0.000000,2.000000,4.000000,4.000000,4.000000,4.000000,4.000000,4.000000,4.000000,4.000000,4.000000,2.000000,4.000000,4.000000,1.000000,41.666668
1601229312.842756,58.000000,0.000000,3913.846191,4644.615234,4130.769043,4270.769043,3987.692383,4584.102539,3965.641113,3871.794922,4327.692383,3996.410156,4233.846191,4151.794922,4102.563965,3985.641113,0.000000,4.000000,,,,0.000000,2.000000,4.000000,4.000000,4.000000,4.000000,4.000000,4.000000,4.000000,4.000000,4.000000,2.000000,4.000000,4.000000,1.000000,41.666668
1601229312.850579,59.000000,0.000000,3912.307617,4650.769043,4127.179688,4280.000000,3991.281982,4584.102539,3963.076904,3873.333252,4329.230957,3995.384521,4234.358887,4149.230957,4101.538574,3990.256348,0.000000,4.000000,,,,0.000000,2.000000,4.000000,4.000000,4.000000,4.000000,4.000000,4.000000,4.000000,4.000000,4.000000,2.000000,4.000000,4.000000,1.000000,41.666668
1601229312.858299,60.000000,0.000000,3917.948730,4661.538574,4132.307617,4279.487305,3998.461426,4589.743652,3963.076904,3871.281982,4328.205078,3995.897461,4233.333496,4149.743652,4097.436035,3991.281982,0.000000,4.000000,,,,0.000000,2.000000,4.000000,4.000000,4.000000,4.000000,4.000000,4.000000,4.000000,4.000000,4.000000,2.000000,4.000000,4.000000,1.000000,41.666668
1601229312.866020,61.000000,0.000000,3921.538574,4662.051270,4137.948730,4276.922852,3996.410156,4588.717773,3965.641113,3868.718018,4322.563965,3993.846191,4225.641113,4148.717773,4093.333252,3992.820557,0.000000,4.000000,,,,0.000000,2.000000,4.000000,4.000000,4.000000,4.000000,4.000000,4.000000,4.000000,4.000000,4.000000,2.000000,4.000000,4.000000,1.000000,41.666668
1601229312.873941,62.000000,0.000000,3920.512939,4656.410156,4137.436035,4279.487305,3992.307617,4586.153809,3965.128174,3864.615479,4317.436035,3983.589844,4217.948730,4140.000000,4087.179443,3990.769287,0.000000,4.000000,,,,0.000000,2.000000,4.000000,4.000000,4.000000,4.000000,4.000000,4.000000,4.000000,4.000000,4.000000,2.000000,4.000000,4.000000,1.000000,41.666668
1601229312.881761,63.000000,0.000000,3920.000000,4658.974121,4136.410156,4284.102539,3996.410156,4591.794922,3966.153809,3866.153809,4324.102539,3985.641113,4221.025879,4136.922852,4088.718018,3986.666748,0.000000,4.000000,,,,0.000000,2.000000,4.000000,4.000000,4.000000,4.000000,4.000000,4.000000,4.000000,4.000000,4.000000,2.000000,4.000000,4.000000,1.000000,41.666668
1601229312.889682,64.000000,0.000000,3920.000000,4664.615234,4132.820313,4284.102539,3997.948730,4593.333496,3966.153809,3868.205078,4328.205078,3995.384521,4223.589844,4141.025879,4092.820557,3987.692383,376.000000,4.000000,,,,0.000000,2.000000,4.000000,4.000000,4.000000,4.000000,4.000000,4.000000,4.000000,4.000000,4.000000,2.000000,4.000000,4.000000,1.000000,41.666668
1601229312.897503,65.000000,0.000000,3921.538574,4663.077148,4131.282227,4277.948730,4003.076904,4591.794922,3967.692383,3868.718018,4327.692383,3994.871826,4224.615234,4142.563965,4094.871826,3988.718018,428.000000,4.000000,,,,0.000000,2.000000,4.000000,4.000000,4.000000,4.000000,4.000000,4.000000,4.000000,4.000000,4.000000,2.000000,4.000000,4.000000,1.000000,41.666668
1601229312.905424,66.000000,0.000000,3926.153809,4661.025879,4138.974121,4277.948730,4009.230713,4594.358887,3970.769287,3872.820557,4333.846191,3998.461426,4228.717773,4145.641113,4097.948730,3991.281982,383.000000,4.000000,,,,0.000000,2.000000,4.000000,4.000000,4.000000,4.000000,4.000000,4.000000,4.000000,4.000000,4.000000,2.000000,4.000000,4.000000,1.000000,41.666668
1601229312.913245,67.000000,0.000000,3934.871826,4671.282227,4146.153809,4292.307617,4008.718018,4604.102539,3978.974365,3881.538574,4348.717773,4015.897461,4235.897461,4155.384766,4107.179688,4004.615479,434.000000,4.000000,,,,0.000000,2.000000,4.000000,4.000000,4.000000,4.000000,4.000000,4.000000,4.000000,4.000000,4.000000,2.000000,4.000000,4.000000,1.000000,41.666668
1601229312.921165,68.000000,0.000000,3937.435791,4674.871582,4147.692383,4295.897461,4003.589844,4607.692383,3982.564209,3883.076904,4352.820313,4018.974365,4238.974121,4161.025879,4112.307617,4016.410156,459.000000,4.000000,,,,0.000000,2.000000,4.000000,4.000000,4.000000,4.000000,4.000000,4.000000,4.000000,4.000000,4.000000,2.000000,4.000000,4.000000,1.000000,41.666668
1601229312.928986,69.000000,0.000000,3930.769287,4663.077148,4144.102539,4285.128418,4000.512939,4600.000000,3978.461426,3877.435791,4345.128418,4009.743652,4238.461426,4154.358887,4105.128418,4006.666748,437.000000,4.000000,,,,0.000000,2.000000,4.000000,4.000000,4.000000,4.000000,4.000000,4.000000,4.000000,4.000000,4.000000,2.000000,4.000000,4.000000,1.000000,41.666668
1601229312.936907,70.000000,0.000000,3921.025635,4652.820313,4134.358887,4277.436035,3994.358887,4588.717773,3969.230713,3870.769287,4333.333496,4000.512939,4231.282227,4144.615234,4090.256348,3994.358887,449.000000,4.000000,,,,0.000000,2.000000,4.000000,4.000000,4.000000,4.000000,4.000000,4.000000,4.000000,4.000000,4.000000,2.000000,4.000000,4.000000,1.000000,41.666668
1601229312.944728,71.000000,0.000000,3920.000000,4654.871582,4129.230957,4277.948730,3992.307617,4586.666504,3963.589844,3868.205078,4326.666504,3995.897461,4227.179688,4145.128418,4090.256348,3988.718018,355.000000,4.000000,,,,0.000000,2.000000,4.000000,4.000000,4.000000,4.000000,4.000000,4.000000,4.000000,4.000000,4.000000,2.000000,4.000000,4.000000,1.000000,41.666668
1601229312.952648,72.000000,0.000000,3923.589844,4656.410156,4133.846191,4277.948730,3997.435791,4588.205078,3964.102539,3870.769287,4329.743652,3998.461426,4230.769043,4149.743652,4100.512695,3986.666748,404.000000,4.000000,,,,0.000000,2.000000,4.000000,4.000000,4.000000,4.000000,4.000000,4.000000,4.000000,4.000000,4.000000,2.000000,4.000000,4.000000,1.000000,41.666668
1601229312.960469,73.000000,0.000000,3923.589844,4656.922852,4137.436035,4281.025879,4001.025635,4589.230957,3966.666748,3872.820557,4333.333496,4003.076904,4229.743652,4146.666504,4098.974121,3985.641113,407.000000,4.000000,,,,0.000000,2.000000,4.000000,4.000000,4.000000,4.000000,4.000000,4.000000,4.000000,4.000000,4.000000,2.000000,4.000000,4.000000,1.000000,41.666668
1601229312.968190,74.000000,0.000000,3920.512939,4654.871582,4138.974121,4284.615234,3995.384521,4588.717773,3963.589844,3869.230713,4326.666504,3997.435791,4224.615234,4140.000000,4090.256348,3986.153809,427.000000,4.000000,,,,0.000000,2.000000,4.000000,4.000000,4.000000,4.000000,4.000000,4.000000,4.000000,4.000000,4.000000,2.000000,4.000000,4.000000,1.000000,41.666668
1601229312.976010,75.000000,0.000000,3921.025635,4656.922852,4140.000000,4284.615234,3990.769287,4586.666504,3956.410156,3867.179443,4322.563965,3994.871826,4224.615234,4143.589844,4093.333252,3986.153809,47.000000,4.000000,,,,0.000000,2.000000,4.000000,4.000000,4.000000,4.000000,4.000000,4.000000,4.000000,4.000000,4.000000,2.000000,4.000000,4.000000,1.000000,41.666668
1601229312.983731,76.000000,0.000000,3925.128174,4660.512695,4138.461426,4284.102539,3995.384521,4584.102539,3955.384521,3867.179443,4324.615234,3997.435791,4225.641113,4148.205078,4098.461426,3989.230713,244.000000,4.000000,,,,0.000000,2.000000,4.000000,4.000000,4.000000,4.000000,4.000000,4.000000,4.000000,4.000000,4.000000,2.000000,4.000000,4.000000,1.000000,41.666668
1601229312.991551,77.000000,0.000000,3929.743652,4663.077148,4143.589844,4287.692383,3997.948730,4590.256348,3963.076904,3868.718018,4326.153809,3999.487061,4228.205078,4148.205078,4098.974121,3989.230713,346.000000,4.000000,,,,0.000000,2.000000,4.000000,4.000000,4.000000,4.000000,4.000000,4.000000,4.000000,4.000000,4.000000,2.000000,4.000000,4.000000,1.000000,41.666668
1601229312.999272,78.000000,0.000000,3930.769287,4668.205078,4147.692383,4288.205078,3995.897461,4597.436035,3971.794922,3872.307617,4330.769043,4009.230713,4232.307617,4150.256348,4103.589844,3983.589844,427.000000,4.000000,,,,0.000000,2.000000,4.000000,4.000000,4.000000,4.000000,4.000000,4.000000,4.000000,4.000000,4.000000,2.000000,4.000000,4.000000,1.000000,41.666668
1601229313.007093,79.000000,0.000000,3928.205078,4663.589844,4144.102539,4279.487305,3993.333252,4593.846191,3972.307617,3873.846191,4334.358887,4017.435791,4232.307617,4152.307617,4105.128418,3989.743652,47.000000,4.000000,,,,0.000000,2.000000,4.000000,4.000000,4.000000,4.000000,4.000000,4.000000,4.000000,4.000000,4.000000,2.000000,4.000000,4.000000,1.000000,41.666668
1601229313.014813,80.000000,0.000000,3928.718018,4654.871582,4141.538574,4274.871582,3992.307617,4590.256348,3966.153809,3870.769287,4332.307617,4015.897461,4234.871582,4153.333496,4105.641113,4007.179443,244.000000,4.000000,,,,0.000000,2.000000,4.000000,4.000000,4.000000,4.000000,4.000000,4.000000,4.000000,4.000000,4.000000,2.000000,4.000000,4.000000,1.000000,41.666668
1601229313.022634,81.000000,0.000000,3930.769287,4658.974121,4141.025879,4280.512695,3993.333252,4594.358887,3965.641113,3869.230713,4332.820313,4017.948730,4240.512695,4156.922852,4114.871582,4006.153809,346.000000,4.000000,,,,0.000000,2.000000,4.000000,4.000000,4.000000,4.000000,4.000000,4.000000,4.000000,4.000000,4.000000,2.000000,4.000000,4.000000,1.000000,41.666668
1601229313.030355,82.000000,0.000000,3929.230713,4664.102539,4138.974121,4283.589844,3997.435791,4597.436035,3971.794922,3873.846191,4338.974121,4023.589844,4240.512695,4157.436035,4120.000000,3991.281982,427.000000,4.000000,,,,0.000000,2.000000,4.000000,4.000000,4.000000,4.000000,4.000000,4.000000,4.000000,4.000000,4.000000,2.000000,4.000000,4.000000,1.000000,41.666668
1601229313.038175,83.000000,0.000000,3925.641113,4653.333496,4141.025879,4271.282227,3996.923096,4589.230957,3965.641113,3873.846191,4334.871582,4018.461426,4235.384766,4150.256348,4110.256348,3987.179443,47.000000,4.000000,,,,0.000000,2.000000,4.000000,4.000000,4.000000,4.000000,4.000000,4.000000,4.000000,4.000000,4.000000,2.000000,4.000000,4.000000,1.000000,41.666668
1601229313.045896,84.000000,0.000000,3926.153809,4648.717773,4145.641113,4265.641113,3996.410156,4587.179688,3961.025635,3872.307617,4331.282227,4013.333252,4234.358887,4149.230957,4106.666504,3989.230713,244.000000,4.000000,,,,0.000000,2.000000,4.000000,4.000000,4.000000,4.000000,4.000000,4.000000,4.000000,4.000000,4.000000,2.000000,4.000000,4.000000,1.000000,41.666668
1601229313.053817,85.000000,0.000000,3928.718018,4652.307617,4144.102539,4275.384766,3995.384521,4595.384766,3969.230713,3871.794922,4330.256348,4012.307617,4232.820313,4150.769043,4107.179688,3987.692383,346.000000,4.000000,,,,0.000000,2.000000,4.000000,4.000000,4.000000,4.000000,4.000000,4.000000,4.000000,4.000000,4.000000,2.000000,4.000000,4.000000,1.000000,41.666668
1601229313.061638,86.000000,0.000000,3929.230713,4655.897461,4142.563965,4290.256348,3997.948730,4602.051270,3974.871826,3874.871826,4331.282227,4014.871826,4231.282227,4151.282227,4105.641113,3988.205078,427.000000,4.000000,,,,0.000000,2.000000,4.000000,4.000000,4.000000,4.000000,4.000000,4.000000,4.000000,4.000000,4.000000,2.000000,4.000000,4.000000,1.000000,41.666668
1601229313.069558,87.000000,0.000000,3932.307617,4669.230957,4143.077148,4296.922852,4007.692383,4600.512695,3970.769287,3878.974365,4336.410156,4022.564209,4233.846191,4155.384766,4107.692383,3993.333252,47.000000,4.000000,,,,0.000000,2.000000,4.000000,4.000000,4.000000,4.000000,4.000000,4.000000,4.000000,4.000000,4.000000,2.000000,4.000000,4.000000,1.000000,41.666668
1601229313.077379,88.000000,0.000000,3936.410156,4680.512695,4144.615234,4293.846191,4007.692383,4595.897461,3970.256348,3877.435791,4337.948730,4026.666748,4235.384766,4157.436035,4108.717773,3991.794922,244.000000,4.000000,,,,0.000000,2.000000,4.000000,4.000000,4.000000,4.000000,4.000000,4.000000,4.000000,4.000000,4.000000,2.000000,4.000000,4.000000,1.000000,41.666668
1601229313.085300,89.000000,0.000000,3933.333252,4671.282227,4144.615234,4286.666504,3995.897461,4592.307617,3969.743652,3870.256348,4330.769043,4017.435791,4231.794922,4154.358887,4104.615234,3990.256348,346.000000,4.000000,,,,0.000000,2.000000,4.000000,4.000000,4.000000,4.000000,4.000000,4.000000,4.000000,4.000000,4.000000,2.000000,4.000000,4.000000,1.000000,41.666668
1601229313.093121,90.000000,0.000000,3929.743652,4661.025879,4143.077148,4284.102539,3999.487061,4594.358887,3969.743652,3872.307617,4332.820313,4017.435791,4232.307617,4155.384766,4110.256348,3988.205078,427.000000,4.000000,,,,0.000000,2.000000,4.000000,4.000000,4.000000,4.000000,4.000000,4.000000,4.000000,4.000000,4.000000,2.000000,4.000000,4.000000,1.000000,41.666668
1601229313.101042,91.000000,0.000000,3928.718018,4658.974121,4140.512695,4282.563965,4002.051270,4590.769043,3971.281982,3875.897461,4339.487305,4025.641113,4232.820313,4154.871582,4113.333496,3985.641113,47.000000,4.000000,,,,0.000000,2.000000,4.000000,4.000000,4.000000,4.000000,4.000000,4.000000,4.000000,4.000000,4.000000,2.000000,4.000000,4.000000,1.000000,41.666668
1601229313.108862,92.000000,0.000000,3928.205078,4661.538574,4142.563965,4280.512695,3992.307617,4589.230957,3973.333252,3871.794922,4337.436035,4022.564209,4233.846191,4151.282227,4110.769043,3985.128174,244.000000,4.000000,,,,0.000000,2.000000,4.000000,4.000000,4.000000,4.000000,4.000000,4.000000,4.000000,4.000000,4.000000,2.000000,4.000000,4.000000,1.000000,41.666668
1601229313.116783,93.000000,0.000000,3932.307617,4664.615234,4148.205078,4282.051270,3988.718018,4599.487305,3981.025635,3872.820557,4334.358887,4017.435791,4238.461426,4156.410156,4114.871582,3989.230713,346.000000,4.000000,,,,0.000000,2.000000,4.000000,4.000000,4.000000,4.000000,4.000000,4.000000,4.000000,4.000000,4.000000,2.000000,4.000000,4.000000,1.000000,41.666668
1601229313.124604,94.000000,0.000000,3936.923096,4663.077148,4147.179688,4281.538574,3990.769287,4606.153809,3985.641113,3880.512939,4339.487305,4020.512939,4234.871582,4161.538574,4113.333496,3988.205078,427.000000,4.000000,,,,0.000000,2.000000,4.000000,4.000000,4.000000,4.000000,4.000000,4.000000,4.000000,4.000000,4.000000,2.000000,4.000000,4.000000,1.000000,41.666668
1601229313.132525,95.000000,0.000000,3931.281982,4655.897461,4140.000000,4275.384766,3991.281982,4598.461426,3980.000000,3882.564209,4343.077148,4018.974365,4224.102539,4154.871582,4098.974121,3986.153809,47.000000,4.000000,,,,0.000000,2.000000,4.000000,4.000000,4.000000,4.000000,4.000000,4.000000,4.000000,4.000000,4.000000,2.000000,4.000000,4.000000,1.000000,41.666668
1601229313.140345,96.000000,0.000000,3928.718018,4658.974121,4137.948730,4275.384766,3996.410156,4599.487305,3980.512939,3882.564209,4345.128418,4015.384521,4225.128418,4149.743652,4094.358887,3997.948730,244.000000,4.000000,,,,0.000000,2.000000,4.000000,4.000000,4.000000,4.000000,4.000000,4.000000,4.000000,4.000000,4.000000,2.000000,4.000000,4.000000,1.000000,41.666668
1601229313.148066,97.000000,0.000000,3936.410156,4669.743652,4142.051270,4283.589844,4002.051270,4607.692383,3985.128174,3885.641113,4347.179688,4020.000000,4234.358887,4153.333496,4105.641113,4005.128174,346.000000,4.000000,,,,0.000000,2.000000,4.000000,4.000000,4.000000,4.000000,4.000000,4.000000,4.000000,4.000000,4.000000,2.000000,4.000000,4.000000,1.000000,41.666668
1601229313.155886,98.000000,0.000000,3936.923096,4664.615234,4142.051270,4283.077148,3997.435791,4595.384766,3974.871826,3877.948730,4339.487305,4016.923096,4229.743652,4152.307617,4103.589844,3996.923096,427.000000,4.000000,,,,0.000000,2.000000,4.000000,4.000000,4.000000,4.000000,4.000000,4.000000,4.000000,4.000000,4.000000,2.000000,4.000000,4.000000,1.000000,41.666668
1601229313.163607,99.000000,0.000000,3929.743652,4660.512695,4137.948730,4276.922852,4002.051270,4585.641113,3966.666748,3870.769287,4333.846191,4009.743652,4224.615234,4149.743652,4094.358887,3988.718018,47.000000,4.000000,,,,0.000000,2.000000,4.000000,4.000000,4.000000,4.000000,4.000000,4.000000,4.000000,4.000000,4.000000,2.000000,4.000000,4.000000,1.000000,41.666668
1601229313.171428,100.000000,0.000000,3928.718018,4669.230957,4138.461426,4281.025879,4009.743652,4593.333496,3972.307617,3875.384521,4334.871582,4011.794922,4227.179688,4151.794922,4097.436035,3988.718018,244.000000,4.000000,,,,0.000000,2.000000,4.000000,4.000000,4.000000,4.000000,4.000000,4.000000,4.000000,4.000000,4.000000,2.000000,4.000000,4.000000,1.000000,41.666668
1601229313.179148,101.000000,0.000000,3936.923096,4678.974121,4145.128418,4291.282227,4010.256348,4602.051270,3975.897461,3880.512939,4342.563965,4018.974365,4233.846191,4157.436035,4109.230957,3987.179443,346.000000,4.000000,,,,0.000000,2.000000,4.000000,4.000000,4.000000,4.000000,4.000000,4.000000,4.000000,4.000000,4.000000,2.000000,4.000000,4.000000,1.000000,41.666668
1601229313.186969,102.000000,0.000000,3941.025635,4674.358887,4150.256348,4288.717773,4001.538574,4595.384766,3968.205078,3874.871826,4340.512695,4014.871826,4234.358887,4155.384766,4106.666504,3988.205078,427.000000,4.000000,,,,0.000000,2.000000,4.000000,4.000000,4.000000,4.000000,4.000000,4.000000,4.000000,4.000000,4.000000,2.000000,4.000000,4.000000,1.000000,41.666668
1601229313.194690,103.000000,0.000000,3937.948730,4667.179688,4150.256348,4286.666504,3995.897461,4589.743652,3963.589844,3870.769287,4332.307617,4013.846191,4231.282227,4149.230957,4098.974121,3988.718018,47.000000,4.000000,,,,0.000000,2.000000,4.000000,4.000000,4.000000,4.000000,4.000000,4.000000,4.000000,4.000000,4.000000,2.000000,4.000000,4.000000,1.000000,41.666668
1601229313.202510,104.000000,0.000000,3933.846191,4664.615234,4148.205078,4288.717773,3999.487061,4589.230957,3959.487061,3869.230713,4324.615234,4011.794922,4228.205078,4148.717773,4098.974121,3986.666748,244.000000,4.000000,,,,0.000000,2.000000,4.000000,4.000000,4.000000,4.000000,4.000000,4.000000,4.000000,4.000000,4.000000,2.000000,4.000000,4.000000,1.000000,41.666668
1601229313.210231,105.000000,0.000000,3934.358887,4669.230957,4147.179688,4287.692383,4005.641113,4590.256348,3956.410156,3869.230713,4325.128418,4005.128174,4224.102539,4151.282227,4098.974121,3986.153809,346.000000,4.000000,,,,0.000000,2.000000,4.000000,4.000000,4.000000,4.000000,4.000000,4.000000,4.000000,4.000000,4.000000,2.000000,4.000000,4.000000,1.000000,41.666668
1601229313.218152,106.000000,0.000000,3934.871826,4668.717773,4145.128418,4283.077148,4002.564209,4588.205078,3961.025635,3869.230713,4327.692383,4000.000000,4220.512695,4148.717773,4094.871826,3986.666748,427.000000,4.000000,,,,0.000000,2.000000,4.000000,4.000000,4.000000,4.000000,4.000000,4.000000,4.000000,4.000000,4.000000,2.000000,4.000000,4.000000,1.000000,41.666668
1601229313.225973,107.000000,0.000000,3935.384521,4663.589844,4139.487305,4280.512695,3994.358887,4584.102539,3963.589844,3868.205078,4326.153809,3997.948730,4218.974121,4147.179688,4094.358887,3984.615479,47.000000,4.000000,,,,0.000000,2.000000,4.000000,4.000000,4.000000,4.000000,4.000000,4.000000,4.000000,4.000000,4.000000,2.000000,4.000000,4.000000,1.000000,41.666668
1601229313.233894,108.000000,0.000000,3935.897461,4663.589844,4137.436035,4276.410156,3994.358887,4585.128418,3961.538574,3870.256348,4328.205078,4000.512939,4221.025879,4149.743652,4098.461426,3986.153809,244.000000,4.000000,,,,0.000000,2.000000,4.000000,4.000000,4.000000,4.000000,4.000000,4.000000,4.000000,4.000000,4.000000,2.000000,4.000000,4.000000,1.000000,41.666668
1601229313.241715,109.000000,0.000000,3937.435791,4664.102539,4146.666504,4274.871582,3998.974365,4589.743652,3966.666748,3875.897461,4335.897461,4009.743652,4227.179688,4152.820313,4105.128418,3991.281982,346.000000,4.000000,,,,0.000000,2.000000,4.000000,4.000000,4.000000,4.000000,4.000000,4.000000,4.000000,4.000000,4.000000,2.000000,4.000000,4.000000,1.000000,41.666668
1601229313.249636,110.000000,0.000000,3935.384521,4663.589844,4148.205078,4279.487305,3997.948730,4590.256348,3970.256348,3877.435791,4335.897461,4012.820557,4228.717773,4155.897461,4106.666504,3990.769287,427.000000,4.000000,,,,0.000000,2.000000,4.000000,4.000000,4.000000,4.000000,4.000000,4.000000,4.000000,4.000000,4.000000,2.000000,4.000000,4.000000,1.000000,41.666668
1601229313.257456,111.000000,0.000000,3928.718018,4659.487305,4136.922852,4274.871582,3994.358887,4584.102539,3963.076904,3872.820557,4326.153809,4004.615479,4220.512695,4151.794922,4097.948730,3985.128174,47.000000,4.000000,,,,0.000000,2.000000,4.000000,4.000000,4.000000,4.000000,4.000000,4.000000,4.000000,4.000000,4.000000,2.000000,4.000000,4.000000,1.000000,41.666668
1601229313.265377,112.000000,0.000000,3924.102539,4653.333496,4133.846191,4266.153809,3990.256348,4581.538574,3957.948730,3869.230713,4320.000000,3999.487061,4217.948730,4144.615234,4090.769287,3984.615479,244.000000,4.000000,,,,0.000000,2.000000,4.000000,4.000000,4.000000,4.000000,4.000000,4.000000,4.000000,4.000000,4.000000,2.000000,4.000000,4.000000,1.000000,41.666668
1601229313.273198,113.000000,0.000000,3925.641113,4653.846191,4140.512695,4269.230957,3984.615479,4583.077148,3959.487061,3869.743652,4322.051270,3998.974365,4223.589844,4148.205078,4094.358887,3990.256348,346.000000,4.000000,,,,0.000000,2.000000,4.000000,4.000000,4.000000,4.000000,4.000000,4.000000,4.000000,4.000000,4.000000,2.000000,4.000000,4.000000,1.000000,41.666668
1601229313.281119,114.000000,0.000000,3928.205078,4663.077148,4143.589844,4279.487305,3986.153809,4587.179688,3963.076904,3872.307617,4326.666504,4001.025635,4226.153809,4153.333496,4100.000000,3991.281982,427.000000,4.000000,,,,0.000000,2.000000,4.000000,4.000000,4.000000,4.000000,4.000000,4.000000,4.000000,4.000000,4.000000,2.000000,4.000000,4.000000,1.000000,41.666668
1601229313.288940,115.000000,0.000000,3928.205078,4666.666504,4142.563965,4281.538574,3990.256348,4589.230957,3961.025635,3871.794922,4328.717773,4000.000000,4223.077148,4149.230957,4097.948730,3989.743652,47.000000,4.000000,,,,0.000000,2.000000,4.000000,4.000000,4.000000,4.000000,4.000000,4.000000,4.000000,4.000000,4.000000,2.000000,4.000000,4.000000,1.000000,41.666668
1601229313.296860,116.000000,0.000000,3932.307617,4670.769043,4146.153809,4288.205078,3995.384521,4592.307617,3963.589844,3874.358887,4332.820313,4002.051270,4225.128418,4152.307617,4102.563965,3992.307617,244.000000,4.000000,,,,0.000000,2.000000,4.000000,4.000000,4.000000,4.000000,4.000000,4.000000,4.000000,4.000000,4.000000,2.000000,4.000000,4.000000,1.000000,41.666668
1601229313.304681,117.000000,0.000000,3935.384521,4672.820313,4151.794922,4294.871582,3999.487061,4592.820313,3969.743652,3878.974365,4337.436035,4004.615479,4228.205078,4158.974121,4109.743652,3996.410156,346.000000,4.000000,,,,0.000000,2.000000,4.000000,4.000000,4.000000,4.000000,4.000000,4.000000,4.000000,4.000000,4.000000,2.000000,4.000000,4.000000,1.000000,41.666668
1601229313.312602,118.000000,0.000000,3930.769287,4665.128418,4151.282227,4291.794922,3997.435791,4591.794922,3972.820557,3878.974365,4338.461426,4006.666748,4226.666504,4155.384766,4106.666504,3995.384521,427.000000,4.000000,,,,0.000000,2.000000,4.000000,4.000000,4.000000,4.000000,4.000000,4.000000,4.000000,4.000000,4.000000,2.000000,4.000000,4.000000,1.000000,41.666668
1601229313.320423,119.000000,0.000000,3926.666748,4658.974121,4148.205078,4289.743652,3989.743652,4590.769043,3970.256348,3878.461426,4335.384766,4003.076904,4225.128418,4150.769043,4103.077148,3997.948730,47.000000,4.000000,,,,0.000000,2.000000,4.000000,4.000000,4.000000,4.000000,4.000000,4.000000,4.000000,4.000000,4.000000,2.000000,4.000000,4.000000,1.000000,41.666668
1601229313.328143,120.000000,0.000000,3924.615479,4664.102539,4148.717773,4290.256348,3988.205078,4591.282227,3969.230713,3883.589844,4334.871582,4002.051270,4226.666504,4151.282227,4108.717773,4000.000000,244.000000,4.000000,,,,0.000000,2.000000,4.000000,4.000000,4.000000,4.000000,4.000000,4.000000,4.000000,4.000000,4.000000,2.000000,4.000000,4.000000,1.000000,41.666668
1601229313.335964,121.000000,0.000000,3922.051270,4662.051270,4149.743652,4283.077148,3990.256348,4588.717773,3967.692383,3882.051270,4335.897461,4004.102539,4229.743652,4152.307617,4111.282227,3997.435791,346.000000,4.000000,,,,0.000000,2.000000,4.000000,4.000000,4.000000,4.000000,4.000000,4.000000,4.000000,4.000000,4.000000,2.000000,4.000000,4.000000,1.000000,41.666668
1601229313.343685,122.000000,0.000000,3922.564209,4656.922852,4153.333496,4283.589844,3993.333252,4587.179688,3965.641113,3877.948730,4339.487305,4007.692383,4234.871582,4152.820313,4110.769043,3996.923096,427.000000,4.000000,,,,0.000000,2.000000,4.000000,4.000000,4.000000,4.000000,4.000000,4.000000,4.000000,4.000000,4.000000,2.000000,4.000000,4.000000,1.000000,41.666668
1601229313.351505,123.000000,0.000000,3922.051270,4656.410156,4154.358887,4285.641113,3992.820557,4585.641113,3963.589844,3875.384521,4335.897461,4003.589844,4229.743652,4148.205078,4105.641113,4001.538574,47.000000,4.000000,,,,0.000000,2.000000,4.000000,4.000000,4.000000,4.000000,4.000000,4.000000,4.000000,4.000000,4.000000,2.000000,4.000000,4.000000,1.000000,41.666668
1601229313.359226,124.000000,0.000000,3918.461426,4656.410156,4150.256348,4275.897461,3988.718018,4583.589844,3962.564209,3872.307617,4326.153809,3996.923096,4216.922852,4142.563965,4096.922852,3999.487061,244.000000,4.000000,,,,0.000000,2.000000,4.000000,4.000000,4.000000,4.000000,4.000000,4.000000,4.000000,4.000000,4.000000,2.000000,4.000000,4.000000,1.000000,41.666668
1601229313.367047,125.000000,0.000000,3920.000000,4654.871582,4150.256348,4273.333496,3991.794922,4583.589844,3963.076904,3872.307617,4323.077148,3994.871826,4216.410156,4145.641113,4093.333252,4001.025635,346.000000,4.000000,,,,0.000000,2.000000,4.000000,4.000000,4.000000,4.000000,4.000000,4.000000,4.000000,4.000000,4.000000,2.000000,4.000000,4.000000,1.000000,41.666668
1601229313.374767,126.000000,0.000000,3930.769287,4658.974121,4161.538574,4285.641113,4001.025635,4589.743652,3965.128174,3877.948730,4328.717773,3996.923096,4225.641113,4154.871582,4098.461426,4009.743652,427.000000,4.000000,,,,0.000000,2.000000,4.000000,4.000000,4.000000,4.000000,4.000000,4.000000,4.000000,4.000000,4.000000,2.000000,4.000000,4.000000,1.000000,41.666668
1601229313.382588,127.000000,0.000000,3933.333252,4669.743652,4163.077148,4291.282227,3996.410156,4589.743652,3964.102539,3878.974365,4330.769043,4000.512939,4225.641113,4157.436035,4101.025879,4008.718018,47.000000,4.000000,,,,0.000000,2.000000,4.000000,4.000000,4.000000,4.000000,4.000000,4.000000,4.000000,4.000000,4.000000,2.000000,4.000000,4.000000,1.000000,41.666668
1601229313.390309,128.000000,0.000000,3928.205078,4668.205078,4156.410156,4284.102539,3985.128174,4583.589844,3962.051270,3874.358887,4328.205078,4002.564209,4225.128418,4152.307617,4100.000000,4002.564209,244.000000,4.000000,,,,0.000000,2.000000,4.000000,4.000000,4.000000,4.000000,4.000000,4.000000,4.000000,4.000000,4.000000,2.000000,4.000000,4.000000,1.000000,41.666668
1601229313.398129,0.000000,0.000000,3928.205078,4654.871582,4156.922852,4281.538574,3986.153809,4588.205078,3966.153809,3876.410156,4335.897461,4009.230713,4230.769043,4150.769043,4104.615234,4004.615479,376.000000,4.000000,,,,0.000000,2.000000,4.000000,4.000000,4.000000,4.000000,4.000000,4.000000,4.000000,4.000000,4.000000,2.000000,4.000000,4.000000,1.000000,41.666668
1601229313.405850,1.000000,0.000000,3928.718018,4655.897461,4159.487305,4282.563965,3990.769287,4595.384766,3974.871826,3884.102539,4342.563965,4015.897461,4231.794922,4155.897461,4108.717773,4006.666748,431.000000,4.000000,,,,0.000000,2.000000,4.000000,4.000000,4.000000,4.000000,4.000000,4.000000,4.000000,4.000000,4.000000,2.000000,4.000000,4.000000,1.000000,41.666668
1601229313.413670,2.000000,0.000000,3921.025635,4666.666504,4155.897461,4281.538574,3992.820557,4591.282227,3975.384521,3884.102539,4340.000000,4015.384521,4233.333496,4158.461426,4109.230957,4001.538574,383.000000,4.000000,,,,0.000000,2.000000,4.000000,4.000000,4.000000,4.000000,4.000000,4.000000,4.000000,4.000000,4.000000,2.000000,4.000000,4.000000,1.000000,41.666668
1601229313.421391,3.000000,0.000000,3916.923096,4666.153809,4154.358887,4279.487305,3989.743652,4584.102539,3965.128174,3877.948730,4332.820313,4006.153809,4230.769043,4151.282227,4103.589844,4000.512939,436.000000,4.000000,,,,0.000000,2.000000,4.000000,4.000000,4.000000,4.000000,4.000000,4.000000,4.000000,4.000000,4.000000,2.000000,4.000000,4.000000,1.000000,41.666668
1601229313.429311,4.000000,0.000000,3924.102539,4663.077148,4160.000000,4281.025879,3990.769287,4586.666504,3964.102539,3877.948730,4331.794922,4001.538574,4225.128418,4146.666504,4101.538574,4001.025635,460.000000,4.000000,,,,0.000000,2.000000,4.000000,4.000000,4.000000,4.000000,4.000000,4.000000,4.000000,4.000000,4.000000,2.000000,4.000000,4.000000,1.000000,41.666668
1601229313.437132,5.000000,0.000000,3924.615479,4662.051270,4160.512695,4277.948730,3996.923096,4585.128418,3964.102539,3876.923096,4327.179688,3998.974365,4223.589844,4149.230957,4100.000000,4002.051270,439.000000,4.000000,,,,0.000000,2.000000,4.000000,4.000000,4.000000,4.000000,4.000000,4.000000,4.000000,4.000000,4.000000,2.000000,4.000000,4.000000,1.000000,41.666668
1601229313.445053,6.000000,0.000000,3923.589844,4665.641113,4160.512695,4281.025879,4001.538574,4582.051270,3961.025635,3872.307617,4323.589844,3998.974365,4225.128418,4153.846191,4100.000000,4002.564209,449.000000,4.000000,,,,0.000000,2.000000,4.000000,4.000000,4.000000,4.000000,4.000000,4.000000,4.000000,4.000000,4.000000,2.000000,4.000000,4.000000,1.000000,41.666668
1601229313.452874,7.000000,0.000000,3925.128174,4671.794922,4163.589844,4292.307617,3995.897461,4584.615234,3958.461426,3872.307617,4327.692383,4001.025635,4224.615234,4154.871582,4104.102539,4004.102539,356.000000,4.000000,,,,0.000000,2.000000,4.000000,4.000000,4.000000,4.000000,4.000000,4.000000,4.000000,4.000000,4.000000,2.000000,4.000000,4.000000,1.000000,41.666668
1601229313.460794,8.000000,0.000000,3923.076904,4675.897461,4161.538574,4295.897461,3992.307617,4591.794922,3963.589844,3879.487061,4335.897461,4006.153809,4227.692383,4153.846191,4108.717773,4004.102539,407.000000,4.000000,,,,0.000000,2.000000,4.000000,4.000000,4.000000,4.000000,4.000000,4.000000,4.000000,4.000000,4.000000,2.000000,4.000000,4.000000,1.000000,41.666668
1601229313.468615,9.000000,0.000000,3918.974365,4669.230957,4157.436035,4283.589844,3992.820557,4597.948730,3973.333252,3881.538574,4340.000000,4008.718018,4228.717773,4153.333496,4105.641113,4004.615479,411.000000,4.000000,,,,0.000000,2.000000,4.000000,4.000000,4.000000,4.000000,4.000000,4.000000,4.000000,4.000000,4.000000,2.000000,4.000000,4.000000,1.000000,41.666668
1601229313.476536,10.000000,0.000000,3921.025635,4667.179688,4154.871582,4278.974121,3994.871826,4598.974121,3978.461426,3877.435791,4335.897461,4003.589844,4225.128418,4153.846191,4101.025879,4001.538574,428.000000,4.000000,,,,0.000000,2.000000,4.000000,4.000000,4.000000,4.000000,4.000000,4.000000,4.000000,4.000000,4.000000,2.000000,4.000000,4.000000,1.000000,41.666668
1601229313.484357,11.000000,0.000000,3924.102539,4670.256348,4154.358887,4284.615234,3995.384521,4591.282227,3970.769287,3874.871826,4329.743652,3995.897461,4223.589844,4149.230957,4097.436035,3998.974365,49.000000,4.000000,,,,0.000000,2.000000,4.000000,4.000000,4.000000,4.000000,4.000000,4.000000,4.000000,4.000000,4.000000,2.000000,4.000000,4.000000,1.000000,41.666668
1601229313.492278,12.000000,0.000000,3924.615479,4668.205078,4162.563965,4285.128418,3992.307617,4584.102539,3964.102539,3874.871826,4326.153809,3993.846191,4222.051270,4144.615234,4094.871826,3999.487061,245.000000,4.000000,,,,0.000000,2.000000,4.000000,4.000000,4.000000,4.000000,4.000000,4.000000,4.000000,4.000000,4.000000,2.000000,4.000000,4.000000,1.000000,41.666668
1601229313.500099,13.000000,0.000000,3926.666748,4669.230957,4166.666504,4282.563965,3987.179443,4584.615234,3964.615479,3874.871826,4324.102539,3994.358887,4221.538574,4148.205078,4095.897461,3999.487061,346.000000,4.000000,,,,0.000000,2.000000,4.000000,4.000000,4.000000,4.000000,4.000000,4.000000,4.000000,4.000000,4.000000,2.000000,4.000000,4.000000,1.000000,41.666668
1601229313.508019,14.000000,0.000000,3928.205078,4674.358887,4161.025879,4285.128418,3987.179443,4582.563965,3961.025635,3873.333252,4322.051270,3994.358887,4223.589844,4151.794922,4100.512695,3998.461426,428.000000,4.000000,,,,0.000000,2.000000,4.000000,4.000000,4.000000,4.000000,4.000000,4.000000,4.000000,4.000000,4.000000,2.000000,4.000000,4.000000,1.000000,41.666668
1601229313.515840,15.000000,0.000000,3935.897461,4684.615234,4166.666504,4291.794922,3993.333252,4583.077148,3960.512939,3874.358887,4326.666504,4000.512939,4225.128418,4152.820313,4105.641113,4000.512939,49.000000,4.000000,,,,0.000000,2.000000,4.000000,4.000000,4.000000,4.000000,4.000000,4.000000,4.000000,4.000000,4.000000,2.000000,4.000000,4.000000,1.000000,41.666668
1601229313.523560,16.000000,0.000000,3945.641113,4692.307617,4176.922852,4294.358887,3998.974365,4588.717773,3963.076904,3875.384521,4330.256348,4006.153809,4229.230957,4157.436035,4111.282227,4000.512939,0.000000,4.000000,,,,0.000000,2.000000,4.000000,4.000000,4.000000,4.000000,4.000000,4.000000,4.000000,4.000000,4.000000,2.000000,4.000000,4.000000,1.000000,41.666668
1601229313.531381,17.000000,0.000000,3942.051270,4690.256348,4170.256348,4292.307617,3998.461426,4590.256348,3962.051270,3872.820557,4327.692383,4007.179443,4235.384766,4161.025879,4116.410156,3998.461426,0.000000,4.000000,,,,0.000000,2.000000,4.000000,4.000000,4.000000,4.000000,4.000000,4.000000,4.000000,4.000000,4.000000,2.000000,4.000000,4.000000,1.000000,41.666668
1601229313.539102,18.000000,0.000000,3933.846191,4680.512695,4160.512695,4286.153809,3993.846191,4591.282227,3962.051270,3870.769287,4324.615234,4006.666748,4233.333496,4157.948730,4115.384766,3999.487061,0.000000,4.000000,,,,0.000000,2.000000,4.000000,4.000000,4.000000,4.000000,4.000000,4.000000,4.000000,4.000000,4.000000,2.000000,4.000000,4.000000,1.000000,41.666668
1601229313.546922,19.000000,0.000000,3933.846191,4676.922852,4162.051270,4285.641113,3994.871826,4596.410156,3966.666748,3872.307617,4326.666504,4008.205078,4232.307617,4157.436035,4116.410156,4000.000000,0.000000,4.000000,,,,0.000000,2.000000,4.000000,4.000000,4.000000,4.000000,4.000000,4.000000,4.000000,4.000000,4.000000,2.000000,4.000000,4.000000,1.000000,41.666668
1601229313.554643,20.000000,0.000000,3931.794922,4675.384766,4159.487305,4285.128418,3991.794922,4593.846191,3968.205078,3870.769287,4324.102539,4004.615479,4233.846191,4156.410156,4113.333496,4000.000000,0.000000,4.000000,,,,0.000000,2.000000,4.000000,4.000000,4.000000,4.000000,4.000000,4.000000,4.000000,4.000000,4.000000,2.000000,4.000000,4.000000,1.000000,41.666668
1601229313.562464,21.000000,0.000000,3925.641113,4667.692383,4155.384766,4280.000000,3987.179443,4587.179688,3965.128174,3871.281982,4319.487305,3999.487061,4228.717773,4153.333496,4106.666504,3997.948730,0.000000,4.000000,,,,0.000000,2.000000,4.000000,4.000000,4.000000,4.000000,4.000000,4.000000,4.000000,4.000000,4.000000,2.000000,4.000000,4.000000,1.000000,41.666668
1601229313.570184,22.000000,0.000000,3926.666748,4663.589844,4157.948730,4281.025879,3990.256348,4587.179688,3964.102539,3875.384521,4322.563965,4000.000000,4226.666504,4153.333496,4104.102539,3997.948730,0.000000,4.000000,,,,0.000000,2.000000,4.000000,4.000000,4.000000,4.000000,4.000000,4.000000,4.000000,4.000000,4.000000,2.000000,4.000000,4.000000,1.000000,41.666668
1601229313.578005,23.000000,0.000000,3931.281982,4668.205078,4164.102539,4287.179688,3989.230713,4589.743652,3966.153809,3876.410156,4325.641113,4001.538574,4231.794922,4156.922852,4105.641113,4000.000000,0.000000,4.000000,,,,0.000000,2.000000,4.000000,4.000000,4.000000,4.000000,4.000000,4.000000,4.000000,4.000000,4.000000,2.000000,4.000000,4.000000,1.000000,41.666668
1601229313.585726,24.000000,0.000000,3932.820557,4669.230957,4168.717773,4285.641113,3983.076904,4588.205078,3966.153809,3876.410156,4325.128418,4000.000000,4230.769043,4160.000000,4102.563965,4001.025635,0.000000,4.000000,,,,0.000000,2.000000,4.000000,4.000000,4.000000,4.000000,4.000000,4.000000,4.000000,4.000000,4.000000,2.000000,4.000000,4.000000,1.000000,41.666668
1601229313.593546,25.000000,0.000000,3936.410156,4672.820313,4171.794922,4282.563965,3990.769287,4591.794922,3965.641113,3882.051270,4331.794922,4005.128174,4232.820313,4162.563965,4104.102539,3998.461426,0.000000,4.000000,,,,0.000000,2.000000,4.000000,4.000000,4.000000,4.000000,4.000000,4.000000,4.000000,4.000000,4.000000,2.000000,4.000000,4.000000,1.000000,41.666668
1601229313.601267,26.000000,0.000000,3937.948730,4678.974121,4171.282227,4287.179688,3998.461426,4593.846191,3962.051270,3882.051270,4334.358887,4008.718018,4237.436035,4160.000000,4108.205078,3998.461426,0.000000,4.000000,,,,0.000000,2.000000,4.000000,4.000000,4.000000,4.000000,4.000000,4.000000,4.000000,4.000000,4.000000,2.000000,4.000000,4.000000,1.000000,41.666668
1601229313.609187,27.000000,0.000000,3936.923096,4679.487305,4168.205078,4289.743652,3991.281982,4591.282227,3959.487061,3877.435791,4328.717773,4006.153809,4236.410156,4155.384766,4108.717773,3999.487061,0.000000,4.000000,,,,0.000000,2.000000,4.000000,4.000000,4.000000,4.000000,4.000000,4.000000,4.000000,4.000000,4.000000,2.000000,4.000000,4.000000,1.000000,41.666668
1601229313.617008,28.000000,0.000000,3932.820557,4671.794922,4166.153809,4283.077148,3987.692383,4592.820313,3965.641113,3876.923096,4325.128418,4006.666748,4235.897461,4157.948730,4108.717773,4003.076904,0.000000,4.000000,,,,0.000000,2.000000,4.000000,4.000000,4.000000,4.000000,4.000000,4.000000,4.000000,4.000000,4.000000,2.000000,4.000000,4.000000,1.000000,41.666668
1601229313.624929,29.000000,0.000000,3927.692383,4663.589844,4162.563965,4276.410156,3994.358887,4600.512695,3976.410156,3880.512939,4329.230957,4010.769287,4235.897461,4161.538574,4110.256348,4003.589844,0.000000,4.000000,,,,0.000000,2.000000,4.000000,4.000000,4.000000,4.000000,4.000000,4.000000,4.000000,4.000000,4.000000,2.000000,4.000000,4.000000,1.000000,41.666668
1601229313.632750,30.000000,0.000000,3925.128174,4661.025879,4156.922852,4276.410156,3991.794922,4603.589844,3979.487061,3881.538574,4331.282227,4008.718018,4229.230957,4156.410156,4105.641113,3998.974365,0.000000,4.000000,,,,0.000000,2.000000,4.000000,4.000000,4.000000,4.000000,4.000000,4.000000,4.000000,4.000000,4.000000,2.000000,4.000000,4.000000,1.000000,41.666668
1601229313.640671,31.000000,0.000000,3925.641113,4661.025879,4156.410156,4272.307617,3983.589844,4596.922852,3975.897461,3878.974365,4325.128418,3998.974365,4223.589844,4150.256348,4096.922852,3993.846191,0.000000,4.000000,,,,0.000000,2.000000,4.000000,4.000000,4.000000,4.000000,4.000000,4.000000,4.000000,4.000000,4.000000,2.000000,4.000000,4.000000,1.000000,41.666668
1601229313.648491,32.000000,0.000000,3923.589844,4659.487305,4158.974121,4265.641113,3983.076904,4588.205078,3969.743652,3872.820557,4314.871582,3989.230713,4221.538574,4149.230957,4089.230713,3996.410156,0.000000,4.000000,,,,0.000000,2.000000,4.000000,4.000000,4.000000,4.000000,4.000000,4.000000,4.000000,4.000000,4.000000,2.000000,4.000000,4.000000,1.000000,41.666668
1601229313.656412,33.000000,0.000000,3921.538574,4662.051270,4156.922852,4266.153809,3987.692383,4586.153809,3962.564209,3870.769287,4311.282227,3986.153809,4218.974121,4149.743652,4086.666748,3995.384521,0.000000,4.000000,,,,0.000000,2.000000,4.000000,4.000000,4.000000,4.000000,4.000000,4.000000,4.000000,4.000000,4.000000,2.000000,4.000000,4.000000,1.000000,41.666668
1601229313.664233,34.000000,0.000000,3924.102539,4669.230957,4157.436035,4271.282227,3987.692383,4591.282227,3964.102539,3876.410156,4320.000000,3991.794922,4224.615234,4155.384766,4095.897461,3992.820557,0.000000,4.000000,,,,0.000000,2.000000,4.000000,4.000000,4.000000,4.000000,4.000000,4.000000,4.000000,4.000000,4.000000,2.000000,4.000000,4.000000,1.000000,41.666668
1601229313.672154,35.000000,0.000000,3932.307617,4670.769043,4166.153809,4275.384766,3982.051270,4588.717773,3963.589844,3877.435791,4321.538574,3993.333252,4232.307617,4162.051270,4103.589844,3998.974365,0.000000,4.000000,,,,0.000000,2.000000,4.000000,4.000000,4.000000,4.000000,4.000000,4.000000,4.000000,4.000000,4.000000,2.000000,4.000000,4.000000,1.000000,41.666668
1601229313.679975,36.000000,0.000000,3937.435791,4673.333496,4171.794922,4283.589844,3985.128174,4581.538574,3960.000000,3874.358887,4317.948730,3992.307617,4233.846191,4161.025879,4101.538574,4001.538574,0.000000,4.000000,,,,0.000000,2.000000,4.000000,4.000000,4.000000,4.000000,4.000000,4.000000,4.000000,4.000000,4.000000,2.000000,4.000000,4.000000,1.000000,41.666668
1601229313.687895,37.000000,0.000000,3935.384521,4674.358887,4170.256348,4285.128418,3990.256348,4583.077148,3961.025635,3873.846191,4318.461426,3994.358887,4229.743652,4156.922852,4100.000000,3995.384521,0.000000,4.000000,,,,0.000000,2.000000,4.000000,4.000000,4.000000,4.000000,4.000000,4.000000,4.000000,4.000000,4.000000,2.000000,4.000000,4.000000,1.000000,41.666668
1601229313.695716,38.000000,0.000000,3931.794922,4668.717773,4168.717773,4277.948730,3985.128174,4585.128418,3963.076904,3876.923096,4323.077148,3997.948730,4226.153809,4155.897461,4100.512695,3991.281982,0.000000,4.000000,,,,0.000000,2.000000,4.000000,4.000000,4.000000,4.000000,4.000000,4.000000,4.000000,4.000000,4.000000,2.000000,4.000000,4.000000,1.000000,41.666668
1601229313.703436,39.000000,0.000000,3927.692383,4658.974121,4161.025879,4273.846191,3975.897461,4576.410156,3955.384521,3869.743652,4317.948730,3988.205078,4222.563965,4150.769043,4091.281982,3990.769287,0.000000,4.000000,,,,0.000000,2.000000,4.000000,4.000000,4.000000,4.000000,4.000000,4.000000,4.000000,4.000000,4.000000,2.000000,4.000000,4.000000,1.000000,41.666668
1601229313.711257,40.000000,0.000000,3924.615479,4661.538574,4154.871582,4276.922852,3982.051270,4577.948730,3955.384521,3865.128174,4313.333496,3982.051270,4222.051270,4147.692383,4085.641113,3988.205078,0.000000,4.000000,,,,0.000000,2.000000,4.000000,4.000000,4.000000,4.000000,4.000000,4.000000,4.000000,4.000000,4.000000,2.000000,4.000000,4.000000,1.000000,41.666668
1601229313.718978,41.000000,0.000000,3924.102539,4663.077148,4155.897461,4269.230957,3983.589844,4585.641113,3962.051270,3868.718018,4313.846191,3985.641113,4221.025879,4148.717773,4087.692383,3989.743652,0.000000,4.000000,,,,0.000000,2.000000,4.000000,4.000000,4.000000,4.000000,4.000000,4.000000,4.000000,4.000000,4.000000,2.000000,4.000000,4.000000,1.000000,41.666668
1601229313.726798,42.000000,0.000000,3920.000000,4650.769043,4155.384766,4261.538574,3974.871826,4587.179688,3964.102539,3871.794922,4313.333496,3988.718018,4218.974121,4145.641113,4085.128174,3989.743652,0.000000,4.000000,,,,0.000000,2.000000,4.000000,4.000000,4.000000,4.000000,4.000000,4.000000,4.000000,4.000000,4.000000,2.000000,4.000000,4.000000,1.000000,41.666668
1601229313.734519,43.000000,0.000000,3911.794922,4641.025879,4149.743652,4262.563965,3973.333252,4586.153809,3961.538574,3868.718018,4314.358887,3984.615479,4215.384766,4140.000000,4078.461426,3987.692383,0.000000,4.000000,,,,0.000000,2.000000,4.000000,4.000000,4.000000,4.000000,4.000000,4.000000,4.000000,4.000000,4.000000,2.000000,4.000000,4.000000,1.000000,41.666668
1601229313.742340,44.000000,0.000000,3915.897461,4655.897461,4151.282227,4267.692383,3982.564209,4591.794922,3964.102539,3870.256348,4315.384766,3984.102539,4216.410156,4145.128418,4084.615479,3989.743652,0.000000,4.000000,,,,0.000000,2.000000,4.000000,4.000000,4.000000,4.000000,4.000000,4.000000,4.000000,4.000000,4.000000,2.000000,4.000000,4.000000,1.000000,41.666668
1601229313.750060,45.000000,0.000000,3926.666748,4670.769043,4160.000000,4272.820313,3990.256348,4593.333496,3966.666748,3872.820557,4313.846191,3987.692383,4227.179688,4153.333496,4093.846191,3993.846191,0.000000,4.000000,,,,0.000000,2.000000,4.000000,4.000000,4.000000,4.000000,4.000000,4.000000,4.000000,4.000000,4.000000,2.000000,4.000000,4.000000,1.000000,41.666668
1601229313.757881,46.000000,0.000000,3927.692383,4669.743652,4163.589844,4279.487305,3994.358887,4586.666504,3964.102539,3869.743652,4314.871582,3988.205078,4229.743652,4151.282227,4092.307617,3991.281982,0.000000,4.000000,,,,0.000000,2.000000,4.000000,4.000000,4.000000,4.000000,4.000000,4.000000,4.000000,4.000000,4.000000,2.000000,4.000000,4.000000,1.000000,41.666668
1601229313.765602,47.000000,0.000000,3922.564209,4666.666504,4160.512695,4278.974121,3993.846191,4578.974121,3956.923096,3866.666748,4312.820313,3984.615479,4218.461426,4143.077148,4084.102539,3990.256348,0.000000,4.000000,,,,0.000000,2.000000,4.000000,4.000000,4.000000,4.000000,4.000000,4.000000,4.000000,4.000000,4.000000,2.000000,4.000000,4.000000,1.000000,41.666668
1601229313.773422,48.000000,0.000000,3921.025635,4665.641113,4154.871582,4270.256348,3985.641113,4576.922852,3951.281982,3864.615479,4301.538574,3977.948730,4210.769043,4138.974121,4077.948730,3990.256348,0.000000,4.000000,,,,0.000000,2.000000,4.000000,4.000000,4.000000,4.000000,4.000000,4.000000,4.000000,4.000000,4.000000,2.000000,4.000000,4.000000,1.000000,41.666668
1601229313.781143,49.000000,0.000000,3925.128174,4667.692383,4156.922852,4273.333496,3983.076904,4580.512695,3956.410156,3864.102539,4298.461426,3973.333252,4215.384766,4146.153809,4081.538574,3989.743652,0.000000,4.000000,,,,0.000000,2.000000,4.000000,4.000000,4.000000,4.000000,4.000000,4.000000,4.000000,4.000000,4.000000,2.000000,4.000000,4.000000,1.000000,41.666668
1601229313.789064,50.000000,0.000000,3929.230713,4670.769043,4164.102539,4280.512695,3984.102539,4578.461426,3961.538574,3866.153809,4303.589844,3972.820557,4218.974121,4152.307617,4085.641113,3991.281982,0.000000,4.000000,,,,0.000000,2.000000,4.000000,4.000000,4.000000,4.000000,4.000000,4.000000,4.000000,4.000000,4.000000,2.000000,4.000000,4.000000,1.000000,41.666668
1601229313.796884,51.000000,0.000000,3927.692383,4668.717773,4165.128418,4280.000000,3985.641113,4578.974121,3962.051270,3869.743652,4308.717773,3979.487061,4220.000000,4150.769043,4086.666748,3990.256348,0.000000,4.000000,,,,0.000000,2.000000,4.000000,4.000000,4.000000,4.000000,4.000000,4.000000,4.000000,4.000000,4.000000,2.000000,4.000000,4.000000,1.000000,41.666668
1601229313.804805,52.000000,0.000000,3923.076904,4664.102539,4162.051270,4274.358887,3984.615479,4582.563965,3963.076904,3870.769287,4314.358887,3985.128174,4222.051270,4151.282227,4086.153809,3987.179443,0.000000,4.000000,,,,0.000000,2.000000,4.000000,4.000000,4.000000,4.000000,4.000000,4.000000,4.000000,4.000000,4.000000,2.000000,4.000000,4.000000,1.000000,41.666668
