title:your record name, start timestamp:1600453978.739082, stop timestamp:1600453980.748831, headset type:EPOC, headset serial:53899522, headset firmware:1e00, subject name:alzaabi.su, channels:38, sampling rate:128, samples:258       , version:2.0
Timestamp,EEG.Counter,EEG.Interpolated,EEG.AF3,EEG.F7,EEG.F3,EEG.FC5,EEG.T7,EEG.P7,EEG.O1,EEG.O2,EEG.P8,EEG.T8,EEG.FC6,EEG.F4,EEG.F8,EEG.AF4,EEG.RawCq,EEG.Battery,MarkerIndex,MarkerType,MarkerValueInt,EEG.MarkerHardware,CQ.AF3,CQ.F7,CQ.F3,CQ.FC5,CQ.T7,CQ.P7,CQ.O1,CQ.O2,CQ.P8,CQ.T8,CQ.FC6,CQ.F4,CQ.F8,CQ.AF4,CQ.Overall
1600453978.739082,58.000000,0.000000,4156.410156,4834.871582,4418.974121,4418.974121,4263.077148,4842.051270,4266.666504,4117.436035,4482.563965,4293.846191,4426.666504,4388.205078,4285.641113,4230.769043,0.000000,4.000000,,,,0.000000,4.000000,4.000000,4.000000,4.000000,4.000000,2.000000,4.000000,4.000000,4.000000,4.000000,4.000000,4.000000,4.000000,4.000000,83.333336
1600453978.747003,59.000000,0.000000,4165.641113,4838.974121,4423.077148,4422.051270,4301.025879,4862.051270,4282.563965,4125.641113,4497.436035,4348.205078,4433.333496,4392.820313,4293.333496,4238.974121,0.000000,4.000000,,,,0.000000,4.000000,4.000000,4.000000,4.000000,4.000000,2.000000,4.000000,4.000000,4.000000,4.000000,4.000000,4.000000,4.000000,4.000000,83.333336
1600453978.754825,60.000000,0.000000,4174.358887,4850.256348,4425.128418,4431.794922,4288.205078,4872.307617,4304.102539,4135.897461,4485.128418,4313.846191,4437.436035,4401.025879,4302.563965,4241.025879,0.000000,4.000000,,,,0.000000,4.000000,4.000000,4.000000,4.000000,4.000000,2.000000,4.000000,4.000000,4.000000,4.000000,4.000000,4.000000,4.000000,4.000000,83.333336
1600453978.762747,61.000000,0.000000,4172.307617,4856.922852,4422.051270,4436.922852,4263.589844,4872.820313,4303.589844,4131.794922,4469.743652,4271.794922,4434.358887,4401.538574,4300.000000,4238.461426,0.000000,4.000000,,,,0.000000,4.000000,4.000000,4.000000,4.000000,4.000000,2.000000,4.000000,4.000000,4.000000,4.000000,4.000000,4.000000,4.000000,4.000000,83.333336
1600453978.770569,62.000000,0.000000,4172.307617,4857.948730,4422.051270,4438.461426,4278.974121,4866.666504,4302.051270,4133.846191,4498.461426,4291.282227,4433.333496,4395.897461,4298.974121,4237.436035,0.000000,4.000000,,,,0.000000,4.000000,4.000000,4.000000,4.000000,4.000000,2.000000,4.000000,4.000000,4.000000,4.000000,4.000000,4.000000,4.000000,4.000000,83.333336
1600453978.778490,63.000000,0.000000,4167.179688,4849.743652,4421.025879,4433.333496,4288.205078,4848.717773,4304.615234,4143.077148,4501.538574,4320.512695,4429.743652,4391.282227,4299.487305,4232.307617,0.000000,4.000000,,,,0.000000,4.000000,4.000000,4.000000,4.000000,4.000000,2.000000,4.000000,4.000000,4.000000,4.000000,4.000000,4.000000,4.000000,4.000000,83.333336
1600453978.786312,64.000000,0.000000,4167.179688,4850.769043,4424.102539,4432.820313,4276.410156,4855.897461,4302.051270,4151.282227,4481.538574,4322.563965,4429.230957,4397.948730,4301.538574,4234.871582,362.000000,4.000000,,,,0.000000,4.000000,4.000000,4.000000,4.000000,4.000000,2.000000,4.000000,4.000000,4.000000,4.000000,4.000000,4.000000,4.000000,4.000000,83.333336
1600453978.794234,65.000000,0.000000,4177.436035,4856.922852,4429.743652,4441.025879,4277.436035,4886.666504,4303.077148,4154.871582,4508.205078,4305.641113,4432.820313,4403.077148,4301.025879,4241.025879,382.000000,4.000000,,,,0.000000,4.000000,4.000000,4.000000,4.000000,4.000000,2.000000,4.000000,4.000000,4.000000,4.000000,4.000000,4.000000,4.000000,4.000000,83.333336
1600453978.802056,66.000000,0.000000,4177.948730,4854.871582,4429.743652,4442.563965,4283.589844,4886.153809,4305.641113,4143.589844,4514.358887,4311.794922,4438.461426,4399.487305,4299.487305,4238.461426,412.000000,4.000000,,,,0.000000,4.000000,4.000000,4.000000,4.000000,4.000000,2.000000,4.000000,4.000000,4.000000,4.000000,4.000000,4.000000,4.000000,4.000000,83.333336
1600453978.809977,67.000000,0.000000,4161.025879,4843.589844,4418.461426,4428.205078,4272.820313,4852.820313,4287.692383,4116.922852,4467.179688,4314.358887,4431.282227,4388.205078,4291.282227,4225.641113,414.000000,4.000000,,,,0.000000,4.000000,4.000000,4.000000,4.000000,4.000000,2.000000,4.000000,4.000000,4.000000,4.000000,4.000000,4.000000,4.000000,4.000000,83.333336
1600453978.817799,68.000000,0.000000,4156.922852,4841.538574,4417.948730,4426.666504,4269.743652,4857.436035,4280.512695,4122.051270,4476.410156,4290.256348,4421.025879,4390.256348,4280.512695,4223.589844,429.000000,4.000000,,,,0.000000,4.000000,4.000000,4.000000,4.000000,4.000000,2.000000,4.000000,4.000000,4.000000,4.000000,4.000000,4.000000,4.000000,4.000000,83.333336
1600453978.825520,69.000000,0.000000,4162.563965,4837.948730,4425.641113,4433.846191,4274.871582,4877.436035,4289.230957,4141.538574,4493.333496,4294.358887,4424.615234,4405.128418,4278.974121,4233.846191,402.000000,4.000000,,,,0.000000,4.000000,4.000000,4.000000,4.000000,4.000000,2.000000,4.000000,4.000000,4.000000,4.000000,4.000000,4.000000,4.000000,4.000000,83.333336
1600453978.833342,70.000000,0.000000,4158.461426,4825.641113,4423.077148,4427.692383,4275.384766,4853.333496,4287.179688,4129.743652,4464.102539,4317.436035,4431.794922,4409.743652,4294.871582,4242.051270,418.000000,4.000000,,,,0.000000,4.000000,4.000000,4.000000,4.000000,4.000000,2.000000,4.000000,4.000000,4.000000,4.000000,4.000000,4.000000,4.000000,4.000000,83.333336
1600453978.841064,71.000000,0.000000,4162.051270,4823.589844,4421.538574,4425.641113,4260.000000,4842.051270,4288.717773,4124.102539,4490.769043,4306.666504,4437.948730,4411.282227,4319.487305,4256.922852,343.000000,4.000000,,,,0.000000,4.000000,4.000000,4.000000,4.000000,4.000000,2.000000,4.000000,4.000000,4.000000,4.000000,4.000000,4.000000,4.000000,4.000000,83.333336
1600453978.848885,72.000000,0.000000,4180.000000,4829.743652,4431.794922,4433.846191,4245.641113,4868.205078,4299.487305,4138.461426,4494.358887,4298.974121,4457.436035,4424.615234,4345.641113,4284.615234,361.000000,4.000000,,,,0.000000,4.000000,4.000000,4.000000,4.000000,4.000000,2.000000,4.000000,4.000000,4.000000,4.000000,4.000000,4.000000,4.000000,4.000000,83.333336
1600453978.856607,73.000000,0.000000,4191.794922,4824.102539,4436.922852,4426.153809,4260.512695,4866.153809,4300.512695,4140.512695,4437.948730,4313.846191,4474.358887,4436.922852,4366.666504,4299.487305,360.000000,4.000000,,,,0.000000,4.000000,4.000000,4.000000,4.000000,4.000000,2.000000,4.000000,4.000000,4.000000,4.000000,4.000000,4.000000,4.000000,4.000000,83.333336
1600453978.864428,74.000000,0.000000,4200.000000,4818.461426,4436.410156,4418.974121,4281.538574,4856.410156,4303.077148,4142.051270,4464.615234,4325.641113,4476.410156,4441.025879,4378.974121,4305.128418,392.000000,4.000000,,,,0.000000,4.000000,4.000000,4.000000,4.000000,4.000000,2.000000,4.000000,4.000000,4.000000,4.000000,4.000000,4.000000,4.000000,4.000000,83.333336
1600453978.872149,75.000000,0.000000,4209.230957,4815.897461,4442.563965,4427.692383,4278.974121,4868.205078,4309.743652,4146.153809,4517.436035,4354.358887,4481.025879,4448.717773,4389.230957,4321.025879,361.000000,4.000000,,,,0.000000,4.000000,4.000000,4.000000,4.000000,4.000000,2.000000,4.000000,4.000000,4.000000,4.000000,4.000000,4.000000,4.000000,4.000000,83.333336
1600453978.879971,76.000000,0.000000,4212.307617,4805.128418,4451.282227,4429.743652,4265.128418,4867.692383,4307.692383,4146.153809,4524.615234,4360.512695,4484.102539,4453.846191,4394.871582,4329.743652,365.000000,4.000000,,,,0.000000,4.000000,4.000000,4.000000,4.000000,4.000000,2.000000,4.000000,4.000000,4.000000,4.000000,4.000000,4.000000,4.000000,4.000000,83.333336
1600453978.887692,77.000000,0.000000,4211.794922,4800.000000,4449.743652,4420.512695,4265.641113,4859.487305,4305.641113,4149.743652,4517.948730,4321.538574,4480.000000,4451.282227,4394.871582,4325.128418,358.000000,4.000000,,,,0.000000,4.000000,4.000000,4.000000,4.000000,4.000000,2.000000,4.000000,4.000000,4.000000,4.000000,4.000000,4.000000,4.000000,4.000000,83.333336
1600453978.895513,78.000000,0.000000,4202.563965,4792.820313,4439.487305,4413.846191,4257.948730,4855.897461,4298.974121,4140.000000,4462.051270,4312.820313,4476.922852,4448.205078,4393.846191,4322.563965,392.000000,4.000000,,,,0.000000,4.000000,4.000000,4.000000,4.000000,4.000000,2.000000,4.000000,4.000000,4.000000,4.000000,4.000000,4.000000,4.000000,4.000000,83.333336
1600453978.903235,79.000000,0.000000,4205.641113,4792.820313,4449.743652,4425.128418,4251.794922,4871.794922,4313.846191,4141.025879,4451.794922,4351.794922,4490.256348,4461.025879,4409.743652,4332.820313,361.000000,4.000000,,,,0.000000,4.000000,4.000000,4.000000,4.000000,4.000000,2.000000,4.000000,4.000000,4.000000,4.000000,4.000000,4.000000,4.000000,4.000000,83.333336
1600453978.911157,80.000000,0.000000,4217.948730,4797.436035,4466.666504,4433.333496,4253.333496,4887.692383,4343.077148,4165.641113,4545.641113,4368.717773,4500.000000,4471.282227,4424.615234,4341.025879,365.000000,4.000000,,,,0.000000,4.000000,4.000000,4.000000,4.000000,4.000000,2.000000,4.000000,4.000000,4.000000,4.000000,4.000000,4.000000,4.000000,4.000000,83.333336
1600453978.918979,81.000000,0.000000,4215.384766,4791.794922,4463.589844,4429.743652,4255.897461,4886.666504,4354.871582,4183.077148,4551.794922,4368.205078,4503.077148,4471.282227,4437.948730,4344.615234,358.000000,4.000000,,,,0.000000,4.000000,4.000000,4.000000,4.000000,4.000000,2.000000,4.000000,4.000000,4.000000,4.000000,4.000000,4.000000,4.000000,4.000000,83.333336
1600453978.926900,82.000000,0.000000,4192.820313,4774.871582,4451.282227,4419.487305,4259.487305,4872.307617,4346.666504,4158.974121,4450.256348,4350.256348,4503.077148,4468.717773,4451.794922,4337.948730,392.000000,4.000000,,,,0.000000,4.000000,4.000000,4.000000,4.000000,4.000000,2.000000,4.000000,4.000000,4.000000,4.000000,4.000000,4.000000,4.000000,4.000000,83.333336
1600453978.934722,83.000000,0.000000,4178.461426,4766.666504,4449.743652,4416.410156,4257.436035,4859.487305,4345.128418,4138.974121,4480.512695,4327.179688,4502.563965,4467.179688,4457.948730,4326.666504,361.000000,4.000000,,,,0.000000,4.000000,4.000000,4.000000,4.000000,4.000000,2.000000,4.000000,4.000000,4.000000,4.000000,4.000000,4.000000,4.000000,4.000000,83.333336
1600453978.942644,84.000000,0.000000,4172.307617,4757.436035,4445.641113,4409.743652,4246.666504,4850.769043,4356.410156,4154.871582,4530.769043,4368.205078,4502.563965,4463.589844,4457.436035,4322.051270,365.000000,4.000000,,,,0.000000,4.000000,4.000000,4.000000,4.000000,4.000000,2.000000,4.000000,4.000000,4.000000,4.000000,4.000000,4.000000,4.000000,4.000000,83.333336
1600453978.950466,85.000000,0.000000,4165.128418,4745.641113,4438.461426,4404.615234,4249.743652,4862.563965,4371.282227,4170.256348,4484.615234,4419.487305,4504.615234,4461.025879,4457.948730,4327.692383,358.000000,4.000000,,,,0.000000,4.000000,4.000000,4.000000,4.000000,4.000000,2.000000,4.000000,4.000000,4.000000,4.000000,4.000000,4.000000,4.000000,4.000000,83.333336
1600453978.958387,86.000000,0.000000,4163.077148,4746.153809,4440.512695,4408.717773,4254.358887,4887.692383,4369.230957,4159.487305,4495.897461,4379.487305,4510.769043,4468.205078,4462.563965,4329.743652,392.000000,4.000000,,,,0.000000,4.000000,4.000000,4.000000,4.000000,4.000000,2.000000,4.000000,4.000000,4.000000,4.000000,4.000000,4.000000,4.000000,4.000000,83.333336
1600453978.966209,87.000000,0.000000,4157.436035,4744.102539,4439.487305,4405.641113,4252.307617,4863.589844,4345.641113,4146.666504,4508.205078,4338.974121,4510.256348,4468.205078,4461.538574,4317.436035,361.000000,4.000000,,,,0.000000,4.000000,4.000000,4.000000,4.000000,4.000000,2.000000,4.000000,4.000000,4.000000,4.000000,4.000000,4.000000,4.000000,4.000000,83.333336
1600453978.974131,88.000000,0.000000,4132.820313,4721.538574,4420.512695,4386.666504,4251.282227,4795.897461,4316.922852,4140.512695,4447.179688,4354.871582,4488.205078,4441.025879,4434.358887,4289.743652,365.000000,4.000000,,,,0.000000,4.000000,4.000000,4.000000,4.000000,4.000000,2.000000,4.000000,4.000000,4.000000,4.000000,4.000000,4.000000,4.000000,4.000000,83.333336
1600453978.981953,89.000000,0.000000,4124.615234,4717.436035,4417.436035,4385.641113,4239.487305,4816.922852,4327.692383,4141.025879,4494.358887,4348.205078,4473.333496,4427.692383,4417.436035,4281.025879,358.000000,4.000000,,,,0.000000,4.000000,4.000000,4.000000,4.000000,4.000000,2.000000,4.000000,4.000000,4.000000,4.000000,4.000000,4.000000,4.000000,4.000000,83.333336
1600453978.989874,90.000000,0.000000,4156.410156,4748.205078,4440.512695,4413.333496,4237.436035,4908.717773,4362.563965,4160.512695,4601.538574,4350.769043,4493.846191,4456.410156,4447.179688,4307.692383,392.000000,4.000000,,,,0.000000,4.000000,4.000000,4.000000,4.000000,4.000000,2.000000,4.000000,4.000000,4.000000,4.000000,4.000000,4.000000,4.000000,4.000000,83.333336
1600453978.997696,91.000000,0.000000,4175.897461,4766.666504,4446.666504,4422.051270,4266.666504,4915.384766,4353.846191,4155.384766,4541.538574,4398.974121,4514.358887,4472.307617,4463.077148,4320.000000,361.000000,4.000000,,,,0.000000,4.000000,4.000000,4.000000,4.000000,4.000000,2.000000,4.000000,4.000000,4.000000,4.000000,4.000000,4.000000,4.000000,4.000000,83.333336
1600453979.005417,92.000000,0.000000,4164.102539,4759.487305,4436.410156,4409.743652,4289.230957,4870.769043,4335.384766,4138.461426,4472.820313,4407.179688,4508.717773,4455.384766,4438.461426,4305.128418,365.000000,4.000000,,,,0.000000,4.000000,4.000000,4.000000,4.000000,4.000000,2.000000,4.000000,4.000000,4.000000,4.000000,4.000000,4.000000,4.000000,4.000000,83.333336
1600453979.013239,93.000000,0.000000,4147.179688,4743.077148,4430.256348,4400.512695,4266.666504,4843.077148,4331.794922,4145.641113,4500.000000,4353.846191,4488.205078,4436.922852,4410.769043,4285.641113,358.000000,4.000000,,,,0.000000,4.000000,4.000000,4.000000,4.000000,4.000000,2.000000,4.000000,4.000000,4.000000,4.000000,4.000000,4.000000,4.000000,4.000000,83.333336
1600453979.020961,94.000000,0.000000,4131.282227,4727.179688,4420.512695,4396.410156,4247.692383,4811.794922,4308.205078,4144.102539,4488.205078,4321.538574,4469.230957,4426.666504,4398.461426,4272.307617,392.000000,4.000000,,,,0.000000,4.000000,4.000000,4.000000,4.000000,4.000000,2.000000,4.000000,4.000000,4.000000,4.000000,4.000000,4.000000,4.000000,4.000000,83.333336
1600453979.028782,95.000000,0.000000,4121.025879,4722.563965,4412.307617,4395.384766,4247.179688,4839.487305,4315.897461,4142.051270,4475.897461,4327.179688,4468.717773,4423.589844,4399.487305,4272.820313,361.000000,4.000000,,,,0.000000,4.000000,4.000000,4.000000,4.000000,4.000000,2.000000,4.000000,4.000000,4.000000,4.000000,4.000000,4.000000,4.000000,4.000000,83.333336
1600453979.036504,96.000000,0.000000,4135.384766,4740.512695,4427.179688,4405.641113,4254.358887,4902.051270,4366.153809,4173.333496,4545.128418,4337.948730,4491.282227,4435.897461,4419.487305,4290.769043,365.000000,4.000000,,,,0.000000,4.000000,4.000000,4.000000,4.000000,4.000000,2.000000,4.000000,4.000000,4.000000,4.000000,4.000000,4.000000,4.000000,4.000000,83.333336
1600453979.044325,97.000000,0.000000,4128.717773,4737.436035,4421.538574,4394.871582,4252.820313,4825.641113,4327.692383,4164.102539,4548.717773,4334.871582,4479.487305,4421.025879,4406.666504,4278.461426,358.000000,4.000000,,,,0.000000,4.000000,4.000000,4.000000,4.000000,4.000000,2.000000,4.000000,4.000000,4.000000,4.000000,4.000000,4.000000,4.000000,4.000000,83.333336
1600453979.052046,98.000000,0.000000,4116.922852,4731.282227,4406.666504,4387.692383,4248.717773,4765.128418,4279.487305,4134.358887,4474.871582,4344.615234,4463.077148,4408.205078,4385.641113,4264.102539,392.000000,4.000000,,,,0.000000,4.000000,4.000000,4.000000,4.000000,4.000000,2.000000,4.000000,4.000000,4.000000,4.000000,4.000000,4.000000,4.000000,4.000000,83.333336
1600453979.059868,99.000000,0.000000,4141.025879,4755.384766,4425.641113,4412.820313,4256.922852,4885.128418,4342.563965,4162.563965,4499.487305,4347.179688,4490.256348,4436.922852,4411.282227,4290.769043,361.000000,4.000000,,,,0.000000,4.000000,4.000000,4.000000,4.000000,4.000000,2.000000,4.000000,4.000000,4.000000,4.000000,4.000000,4.000000,4.000000,4.000000,83.333336
1600453979.067589,100.000000,0.000000,4150.769043,4767.692383,4438.461426,4418.974121,4264.615234,4938.461426,4375.897461,4184.615234,4556.410156,4328.717773,4505.641113,4450.256348,4428.205078,4304.615234,365.000000,4.000000,,,,0.000000,4.000000,4.000000,4.000000,4.000000,4.000000,2.000000,4.000000,4.000000,4.000000,4.000000,4.000000,4.000000,4.000000,4.000000,83.333336
1600453979.075410,101.000000,0.000000,4117.948730,4739.487305,4414.358887,4388.205078,4252.307617,4835.897461,4311.794922,4147.179688,4528.205078,4313.846191,4473.333496,4418.461426,4394.358887,4274.871582,358.000000,4.000000,,,,0.000000,4.000000,4.000000,4.000000,4.000000,4.000000,2.000000,4.000000,4.000000,4.000000,4.000000,4.000000,4.000000,4.000000,4.000000,83.333336
1600453979.083132,102.000000,0.000000,4108.205078,4729.230957,4403.589844,4382.051270,4243.077148,4817.948730,4295.897461,4131.794922,4520.512695,4312.820313,4456.922852,4404.102539,4377.436035,4263.589844,392.000000,4.000000,,,,0.000000,4.000000,4.000000,4.000000,4.000000,4.000000,2.000000,4.000000,4.000000,4.000000,4.000000,4.000000,4.000000,4.000000,4.000000,83.333336
1600453979.091054,103.000000,0.000000,4125.641113,4748.717773,4420.512695,4400.000000,4249.743652,4878.974121,4331.794922,4151.282227,4540.000000,4323.589844,4472.307617,4421.538574,4395.384766,4281.025879,361.000000,4.000000,,,,0.000000,4.000000,4.000000,4.000000,4.000000,4.000000,2.000000,4.000000,4.000000,4.000000,4.000000,4.000000,4.000000,4.000000,4.000000,83.333336
1600453979.098876,104.000000,0.000000,4116.922852,4743.589844,4422.051270,4396.410156,4238.461426,4858.974121,4329.743652,4150.256348,4493.333496,4332.820313,4466.666504,4417.436035,4389.230957,4274.871582,365.000000,4.000000,,,,0.000000,4.000000,4.000000,4.000000,4.000000,4.000000,2.000000,4.000000,4.000000,4.000000,4.000000,4.000000,4.000000,4.000000,4.000000,83.333336
1600453979.106798,105.000000,0.000000,4109.230957,4729.230957,4409.743652,4386.153809,4235.384766,4813.846191,4305.128418,4145.128418,4489.230957,4315.384766,4450.256348,4397.436035,4363.589844,4254.358887,358.000000,4.000000,,,,0.000000,4.000000,4.000000,4.000000,4.000000,4.000000,2.000000,4.000000,4.000000,4.000000,4.000000,4.000000,4.000000,4.000000,4.000000,83.333336
1600453979.114619,106.000000,0.000000,4127.692383,4746.666504,4413.846191,4393.333496,4271.282227,4834.358887,4298.974121,4145.128418,4547.692383,4296.922852,4461.025879,4408.205078,4367.179688,4260.512695,392.000000,4.000000,,,,0.000000,4.000000,4.000000,4.000000,4.000000,4.000000,2.000000,4.000000,4.000000,4.000000,4.000000,4.000000,4.000000,4.000000,4.000000,83.333336
1600453979.122541,107.000000,0.000000,4137.948730,4770.769043,4427.692383,4402.563965,4282.051270,4870.256348,4311.794922,4133.333496,4533.333496,4320.512695,4478.461426,4432.307617,4388.205078,4280.000000,361.000000,4.000000,,,,0.000000,4.000000,4.000000,4.000000,4.000000,4.000000,2.000000,4.000000,4.000000,4.000000,4.000000,4.000000,4.000000,4.000000,4.000000,83.333336
1600453979.130363,108.000000,0.000000,4119.487305,4755.384766,4418.974121,4395.384766,4248.717773,4857.948730,4312.307617,4116.922852,4492.820313,4331.794922,4460.512695,4416.410156,4375.384766,4267.692383,365.000000,4.000000,,,,0.000000,4.000000,4.000000,4.000000,4.000000,4.000000,2.000000,4.000000,4.000000,4.000000,4.000000,4.000000,4.000000,4.000000,4.000000,83.333336
1600453979.138284,109.000000,0.000000,4104.102539,4731.794922,4401.025879,4384.615234,4250.769043,4835.897461,4302.051270,4111.794922,4485.128418,4309.743652,4437.436035,4387.692383,4353.333496,4242.051270,358.000000,4.000000,,,,0.000000,4.000000,4.000000,4.000000,4.000000,4.000000,2.000000,4.000000,4.000000,4.000000,4.000000,4.000000,4.000000,4.000000,4.000000,83.333336
1600453979.146106,110.000000,0.000000,4115.384766,4745.641113,4411.282227,4390.769043,4272.307617,4849.743652,4300.000000,4122.563965,4486.666504,4298.461426,4447.179688,4395.384766,4362.563965,4248.717773,392.000000,4.000000,,,,0.000000,4.000000,4.000000,4.000000,4.000000,4.000000,2.000000,4.000000,4.000000,4.000000,4.000000,4.000000,4.000000,4.000000,4.000000,83.333336
1600453979.154028,111.000000,0.000000,4131.282227,4765.641113,4423.589844,4401.538574,4266.666504,4875.897461,4316.410156,4149.230957,4522.051270,4314.871582,4464.615234,4410.256348,4371.282227,4264.102539,361.000000,4.000000,,,,0.000000,4.000000,4.000000,4.000000,4.000000,4.000000,2.000000,4.000000,4.000000,4.000000,4.000000,4.000000,4.000000,4.000000,4.000000,83.333336
1600453979.161850,112.000000,0.000000,4114.358887,4743.589844,4402.051270,4385.128418,4250.769043,4857.948730,4329.743652,4155.384766,4539.487305,4319.487305,4447.692383,4390.256348,4343.589844,4246.153809,365.000000,4.000000,,,,0.000000,4.000000,4.000000,4.000000,4.000000,4.000000,2.000000,4.000000,4.000000,4.000000,4.000000,4.000000,4.000000,4.000000,4.000000,83.333336
1600453979.169771,113.000000,0.000000,4107.179688,4734.871582,4397.948730,4384.102539,4243.077148,4825.641113,4312.820313,4135.384766,4494.358887,4326.666504,4438.974121,4387.179688,4335.897461,4236.922852,358.000000,4.000000,,,,0.000000,4.000000,4.000000,4.000000,4.000000,4.000000,2.000000,4.000000,4.000000,4.000000,4.000000,4.000000,4.000000,4.000000,4.000000,83.333336
1600453979.177593,114.000000,0.000000,4126.666504,4757.436035,4417.436035,4404.102539,4241.025879,4821.025879,4275.384766,4119.487305,4456.410156,4338.974121,4457.436035,4410.256348,4358.974121,4256.410156,392.000000,4.000000,,,,0.000000,4.000000,4.000000,4.000000,4.000000,4.000000,2.000000,4.000000,4.000000,4.000000,4.000000,4.000000,4.000000,4.000000,4.000000,83.333336
1600453979.185314,115.000000,0.000000,4122.563965,4751.794922,4410.256348,4394.871582,4254.358887,4825.128418,4263.077148,4117.436035,4495.897461,4303.077148,4454.358887,4405.128418,4347.692383,4256.410156,361.000000,4.000000,,,,0.000000,4.000000,4.000000,4.000000,4.000000,4.000000,2.000000,4.000000,4.000000,4.000000,4.000000,4.000000,4.000000,4.000000,4.000000,83.333336
1600453979.193136,116.000000,0.000000,4106.153809,4732.820313,4395.897461,4377.948730,4255.897461,4830.256348,4280.000000,4119.487305,4552.820313,4270.769043,4433.333496,4386.666504,4325.128418,4242.051270,365.000000,4.000000,,,,0.000000,4.000000,4.000000,4.000000,4.000000,4.000000,2.000000,4.000000,4.000000,4.000000,4.000000,4.000000,4.000000,4.000000,4.000000,83.333336
1600453979.200858,117.000000,0.000000,4126.666504,4754.358887,4415.897461,4397.436035,4254.871582,4844.102539,4288.205078,4121.025879,4533.846191,4330.769043,4448.717773,4405.641113,4353.333496,4256.922852,358.000000,4.000000,,,,0.000000,4.000000,4.000000,4.000000,4.000000,4.000000,2.000000,4.000000,4.000000,4.000000,4.000000,4.000000,4.000000,4.000000,4.000000,83.333336
1600453979.208679,118.000000,0.000000,4141.538574,4770.256348,4428.205078,4407.179688,4259.487305,4858.974121,4292.307617,4125.641113,4492.307617,4367.692383,4469.743652,4423.077148,4374.871582,4268.205078,392.000000,4.000000,,,,0.000000,4.000000,4.000000,4.000000,4.000000,4.000000,2.000000,4.000000,4.000000,4.000000,4.000000,4.000000,4.000000,4.000000,4.000000,83.333336
1600453979.216401,119.000000,0.000000,4124.102539,4754.358887,4411.282227,4388.717773,4255.897461,4871.282227,4312.307617,4138.974121,4520.000000,4297.948730,4451.282227,4405.641113,4347.692383,4248.717773,361.000000,4.000000,,,,0.000000,4.000000,4.000000,4.000000,4.000000,4.000000,2.000000,4.000000,4.000000,4.000000,4.000000,4.000000,4.000000,4.000000,4.000000,83.333336
1600453979.224222,120.000000,0.000000,4105.641113,4736.922852,4396.410156,4377.436035,4232.820313,4846.153809,4301.538574,4135.897461,4524.102539,4257.436035,4428.717773,4385.641113,4316.922852,4226.666504,365.000000,4.000000,,,,0.000000,4.000000,4.000000,4.000000,4.000000,4.000000,2.000000,4.000000,4.000000,4.000000,4.000000,4.000000,4.000000,4.000000,4.000000,83.333336
1600453979.231944,121.000000,0.000000,4103.077148,4734.358887,4396.922852,4377.948730,4227.692383,4812.820313,4273.846191,4114.358887,4469.743652,4301.538574,4429.743652,4383.589844,4311.282227,4224.102539,358.000000,4.000000,,,,0.000000,4.000000,4.000000,4.000000,4.000000,4.000000,2.000000,4.000000,4.000000,4.000000,4.000000,4.000000,4.000000,4.000000,4.000000,83.333336
1600453979.239765,122.000000,0.000000,4114.358887,4751.282227,4407.179688,4388.717773,4242.563965,4832.307617,4283.077148,4112.307617,4475.897461,4327.692383,4437.436035,4395.897461,4325.641113,4240.000000,392.000000,4.000000,,,,0.000000,4.000000,4.000000,4.000000,4.000000,4.000000,2.000000,4.000000,4.000000,4.000000,4.000000,4.000000,4.000000,4.000000,4.000000,83.333336
1600453979.247487,123.000000,0.000000,4122.563965,4765.128418,4411.282227,4398.461426,4227.179688,4873.333496,4311.282227,4136.410156,4533.333496,4303.589844,4441.538574,4401.025879,4337.948730,4248.717773,361.000000,4.000000,,,,0.000000,4.000000,4.000000,4.000000,4.000000,4.000000,2.000000,4.000000,4.000000,4.000000,4.000000,4.000000,4.000000,4.000000,4.000000,83.333336
1600453979.255308,124.000000,0.000000,4113.846191,4754.871582,4404.102539,4389.743652,4209.743652,4871.794922,4316.922852,4150.256348,4537.948730,4284.102539,4441.025879,4387.692383,4331.794922,4239.487305,365.000000,4.000000,,,,0.000000,4.000000,4.000000,4.000000,4.000000,4.000000,2.000000,4.000000,4.000000,4.000000,4.000000,4.000000,4.000000,4.000000,4.000000,83.333336
1600453979.263029,125.000000,0.000000,4105.641113,4745.128418,4396.922852,4380.512695,4228.205078,4844.615234,4295.897461,4128.717773,4499.487305,4289.743652,4434.871582,4378.974121,4322.051270,4233.846191,358.000000,4.000000,,,,0.000000,4.000000,4.000000,4.000000,4.000000,4.000000,2.000000,4.000000,4.000000,4.000000,4.000000,4.000000,4.000000,4.000000,4.000000,83.333336
1600453979.270851,126.000000,0.000000,4114.871582,4755.384766,4401.538574,4387.692383,4236.410156,4832.820313,4281.538574,4107.692383,4496.922852,4302.563965,4433.846191,4386.666504,4327.179688,4245.641113,392.000000,4.000000,,,,0.000000,4.000000,4.000000,4.000000,4.000000,4.000000,2.000000,4.000000,4.000000,4.000000,4.000000,4.000000,4.000000,4.000000,4.000000,83.333336
1600453979.278572,127.000000,0.000000,4115.897461,4754.871582,4399.487305,4388.205078,4209.743652,4831.794922,4278.461426,4109.230957,4512.820313,4303.589844,4435.384766,4385.128418,4326.153809,4245.641113,361.000000,4.000000,,,,0.000000,4.000000,4.000000,4.000000,4.000000,4.000000,2.000000,4.000000,4.000000,4.000000,4.000000,4.000000,4.000000,4.000000,4.000000,83.333336
1600453979.286494,128.000000,0.000000,4110.769043,4749.743652,4396.922852,4385.641113,4219.487305,4834.871582,4282.051270,4122.051270,4489.743652,4309.230957,4443.077148,4384.102539,4326.666504,4237.948730,365.000000,4.000000,,,,0.000000,4.000000,4.000000,4.000000,4.000000,4.000000,2.000000,4.000000,4.000000,4.000000,4.000000,4.000000,4.000000,4.000000,4.000000,83.333336
1600453979.294315,0.000000,0.000000,4113.846191,4756.922852,4402.563965,4394.358887,4245.128418,4831.794922,4279.487305,4120.512695,4455.384766,4315.897461,4448.717773,4393.333496,4334.358887,4244.102539,361.000000,4.000000,,,,0.000000,4.000000,4.000000,4.000000,4.000000,4.000000,2.000000,4.000000,4.000000,4.000000,4.000000,4.000000,4.000000,4.000000,4.000000,83.333336
1600453979.302237,1.000000,0.000000,4131.794922,4772.820313,4415.897461,4408.205078,4230.769043,4853.333496,4293.846191,4125.641113,4494.358887,4323.589844,4451.282227,4403.077148,4342.051270,4260.000000,380.000000,4.000000,,,,0.000000,4.000000,4.000000,4.000000,4.000000,4.000000,2.000000,4.000000,4.000000,4.000000,4.000000,4.000000,4.000000,4.000000,4.000000,83.333336
1600453979.310059,2.000000,0.000000,4135.384766,4772.307617,4414.871582,4404.102539,4213.846191,4884.615234,4313.846191,4141.538574,4560.512695,4310.769043,4444.615234,4395.384766,4332.820313,4256.410156,411.000000,4.000000,,,,0.000000,4.000000,4.000000,4.000000,4.000000,4.000000,2.000000,4.000000,4.000000,4.000000,4.000000,4.000000,4.000000,4.000000,4.000000,83.333336
1600453979.317981,3.000000,0.000000,4118.461426,4758.461426,4403.077148,4390.256348,4236.410156,4864.102539,4301.025879,4143.589844,4555.897461,4286.153809,4430.769043,4383.077148,4314.871582,4240.000000,412.000000,4.000000,,,,0.000000,4.000000,4.000000,4.000000,4.000000,4.000000,2.000000,4.000000,4.000000,4.000000,4.000000,4.000000,4.000000,4.000000,4.000000,83.333336
1600453979.325802,4.000000,0.000000,4106.666504,4748.205078,4397.948730,4382.051270,4245.641113,4821.025879,4272.307617,4126.153809,4500.000000,4274.871582,4421.538574,4383.589844,4308.717773,4234.358887,429.000000,4.000000,,,,0.000000,4.000000,4.000000,4.000000,4.000000,4.000000,2.000000,4.000000,4.000000,4.000000,4.000000,4.000000,4.000000,4.000000,4.000000,83.333336
1600453979.333724,5.000000,0.000000,4113.333496,4753.846191,4407.179688,4390.769043,4214.358887,4840.000000,4283.589844,4126.666504,4473.846191,4281.538574,4435.384766,4396.410156,4326.666504,4245.641113,395.000000,4.000000,,,,0.000000,4.000000,4.000000,4.000000,4.000000,4.000000,2.000000,2.000000,4.000000,4.000000,4.000000,4.000000,4.000000,4.000000,4.000000,66.666664
1600453979.341546,6.000000,0.000000,4127.179688,4767.179688,4420.512695,4407.692383,4202.051270,4882.051270,4314.358887,4147.179688,4508.205078,4304.615234,4454.871582,4406.666504,4347.692383,4258.461426,416.000000,4.000000,,,,0.000000,4.000000,4.000000,4.000000,4.000000,4.000000,2.000000,2.000000,4.000000,4.000000,4.000000,4.000000,4.000000,4.000000,4.000000,66.666664
1600453979.349467,7.000000,0.000000,4133.333496,4773.333496,4425.641113,4407.692383,4228.205078,4870.769043,4305.641113,4148.205078,4560.512695,4324.615234,4449.230957,4406.153809,4345.641113,4261.538574,342.000000,4.000000,,,,0.000000,4.000000,4.000000,4.000000,4.000000,4.000000,2.000000,2.000000,4.000000,4.000000,4.000000,4.000000,4.000000,4.000000,4.000000,66.666664
1600453979.357289,8.000000,0.000000,4119.487305,4760.000000,4413.333496,4388.205078,4234.358887,4817.948730,4267.179688,4120.512695,4497.436035,4334.871582,4438.974121,4397.436035,4333.333496,4250.769043,350.000000,4.000000,,,,0.000000,4.000000,4.000000,4.000000,4.000000,4.000000,2.000000,2.000000,4.000000,4.000000,4.000000,4.000000,4.000000,4.000000,4.000000,66.666664
1600453979.365011,9.000000,0.000000,4109.743652,4751.794922,4407.179688,4382.051270,4218.974121,4821.538574,4265.641113,4114.358887,4428.717773,4335.384766,4448.205078,4398.974121,4336.922852,4250.256348,357.000000,4.000000,,,,0.000000,4.000000,4.000000,4.000000,4.000000,4.000000,2.000000,2.000000,4.000000,4.000000,4.000000,4.000000,4.000000,4.000000,4.000000,66.666664
1600453979.372832,10.000000,0.000000,4115.897461,4764.102539,4415.897461,4392.307617,4223.077148,4857.436035,4279.487305,4123.077148,4490.769043,4323.077148,4452.820313,4407.692383,4341.025879,4258.461426,386.000000,4.000000,,,,0.000000,4.000000,4.000000,4.000000,4.000000,4.000000,2.000000,2.000000,4.000000,4.000000,4.000000,4.000000,4.000000,4.000000,4.000000,66.666664
1600453979.380554,11.000000,0.000000,4117.436035,4765.641113,4417.948730,4393.846191,4223.077148,4842.563965,4268.205078,4116.410156,4569.743652,4294.871582,4436.922852,4399.487305,4324.615234,4250.769043,359.000000,4.000000,,,,0.000000,4.000000,4.000000,4.000000,4.000000,4.000000,2.000000,2.000000,4.000000,4.000000,4.000000,4.000000,4.000000,4.000000,4.000000,66.666664
1600453979.388375,12.000000,0.000000,4122.051270,4760.000000,4418.974121,4394.871582,4220.512695,4848.717773,4285.128418,4140.000000,4567.179688,4286.666504,4440.000000,4395.384766,4328.205078,4251.282227,362.000000,4.000000,,,,0.000000,4.000000,4.000000,4.000000,4.000000,4.000000,2.000000,2.000000,4.000000,4.000000,4.000000,4.000000,4.000000,4.000000,4.000000,66.666664
1600453979.396097,13.000000,0.000000,4123.589844,4761.025879,4417.436035,4395.384766,4226.666504,4869.743652,4306.666504,4148.205078,4446.666504,4305.128418,4457.436035,4404.102539,4347.692383,4257.436035,360.000000,4.000000,,,,0.000000,4.000000,4.000000,4.000000,4.000000,4.000000,2.000000,2.000000,4.000000,4.000000,4.000000,4.000000,4.000000,4.000000,4.000000,66.666664
1600453979.403919,14.000000,0.000000,4117.436035,4761.538574,4408.717773,4391.794922,4217.948730,4845.641113,4282.563965,4113.846191,4401.538574,4288.205078,4450.769043,4400.000000,4342.563965,4244.102539,386.000000,4.000000,,,,0.000000,4.000000,4.000000,4.000000,4.000000,4.000000,2.000000,2.000000,4.000000,4.000000,4.000000,4.000000,4.000000,4.000000,4.000000,66.666664
1600453979.411640,15.000000,0.000000,4125.128418,4763.589844,4406.666504,4392.307617,4218.974121,4849.230957,4273.333496,4121.025879,4551.282227,4266.666504,4436.410156,4389.743652,4330.256348,4237.436035,359.000000,4.000000,,,,0.000000,4.000000,4.000000,4.000000,4.000000,4.000000,2.000000,2.000000,4.000000,4.000000,4.000000,4.000000,4.000000,4.000000,4.000000,66.666664
1600453979.419461,16.000000,0.000000,4138.974121,4773.333496,4416.410156,4395.384766,4247.179688,4882.563965,4297.436035,4155.897461,4611.794922,4308.717773,4444.615234,4394.358887,4340.512695,4247.692383,0.000000,4.000000,,,,0.000000,4.000000,4.000000,4.000000,4.000000,4.000000,2.000000,2.000000,4.000000,4.000000,4.000000,4.000000,4.000000,4.000000,4.000000,66.666664
1600453979.427183,17.000000,0.000000,4122.563965,4764.615234,4410.769043,4386.666504,4235.897461,4845.128418,4278.461426,4130.256348,4467.692383,4323.077148,4445.641113,4389.230957,4340.000000,4231.794922,0.000000,4.000000,,,,0.000000,4.000000,4.000000,4.000000,4.000000,4.000000,2.000000,2.000000,4.000000,4.000000,4.000000,4.000000,4.000000,4.000000,4.000000,66.666664
1600453979.435004,18.000000,0.000000,4114.871582,4758.461426,4405.641113,4386.666504,4210.769043,4815.384766,4253.846191,4107.692383,4431.794922,4279.487305,4442.563965,4387.179688,4330.256348,4213.846191,0.000000,4.000000,,,,0.000000,4.000000,4.000000,4.000000,4.000000,4.000000,2.000000,2.000000,4.000000,4.000000,4.000000,4.000000,4.000000,4.000000,4.000000,66.666664
1600453979.442725,19.000000,0.000000,4126.666504,4766.153809,4409.230957,4392.307617,4230.256348,4846.666504,4268.717773,4129.743652,4521.025879,4280.000000,4444.102539,4394.358887,4328.717773,4219.487305,0.000000,4.000000,,,,0.000000,4.000000,4.000000,4.000000,4.000000,4.000000,2.000000,2.000000,4.000000,4.000000,4.000000,4.000000,4.000000,4.000000,4.000000,66.666664
1600453979.450547,20.000000,0.000000,4125.641113,4768.717773,4406.666504,4390.256348,4245.641113,4848.205078,4277.436035,4133.333496,4516.922852,4326.153809,4439.487305,4388.717773,4331.794922,4216.922852,0.000000,4.000000,,,,0.000000,4.000000,4.000000,4.000000,4.000000,4.000000,2.000000,2.000000,4.000000,4.000000,4.000000,4.000000,4.000000,4.000000,4.000000,66.666664
1600453979.458268,21.000000,0.000000,4123.589844,4770.769043,4411.794922,4394.358887,4225.641113,4844.615234,4270.769043,4127.692383,4535.384766,4321.025879,4439.487305,4385.128418,4336.410156,4211.282227,0.000000,4.000000,,,,0.000000,4.000000,4.000000,4.000000,4.000000,4.000000,2.000000,2.000000,4.000000,4.000000,4.000000,4.000000,4.000000,4.000000,4.000000,66.666664
1600453979.466190,22.000000,0.000000,4132.307617,4774.871582,4420.512695,4402.051270,4236.922852,4858.974121,4265.641113,4131.282227,4556.410156,4293.846191,4453.333496,4397.948730,4344.615234,4221.025879,0.000000,4.000000,,,,0.000000,4.000000,4.000000,4.000000,4.000000,4.000000,2.000000,2.000000,4.000000,4.000000,4.000000,4.000000,4.000000,4.000000,4.000000,66.666664
1600453979.474011,23.000000,0.000000,4128.717773,4765.641113,4409.230957,4390.256348,4257.436035,4849.743652,4260.512695,4123.589844,4508.205078,4281.538574,4454.358887,4400.000000,4340.512695,4220.000000,0.000000,4.000000,,,,0.000000,4.000000,4.000000,4.000000,4.000000,4.000000,2.000000,2.000000,4.000000,4.000000,4.000000,4.000000,4.000000,4.000000,4.000000,66.666664
1600453979.481933,24.000000,0.000000,4116.410156,4753.333496,4393.333496,4377.948730,4233.846191,4836.922852,4259.487305,4121.538574,4507.692383,4285.641113,4440.512695,4386.153809,4326.666504,4205.128418,0.000000,4.000000,,,,0.000000,4.000000,4.000000,4.000000,4.000000,4.000000,2.000000,2.000000,4.000000,4.000000,4.000000,4.000000,4.000000,4.000000,4.000000,66.666664
1600453979.489755,25.000000,0.000000,4106.666504,4745.641113,4389.743652,4375.384766,4198.461426,4831.282227,4256.922852,4118.461426,4510.769043,4307.179688,4426.666504,4378.974121,4315.384766,4197.436035,0.000000,4.000000,,,,0.000000,4.000000,4.000000,4.000000,4.000000,4.000000,2.000000,2.000000,4.000000,4.000000,4.000000,4.000000,4.000000,4.000000,4.000000,66.666664
1600453979.497677,26.000000,0.000000,4104.615234,4746.666504,4395.897461,4377.948730,4208.205078,4835.384766,4259.487305,4113.846191,4481.538574,4294.871582,4424.615234,4384.615234,4316.922852,4205.641113,0.000000,4.000000,,,,0.000000,4.000000,4.000000,4.000000,4.000000,4.000000,2.000000,2.000000,4.000000,4.000000,4.000000,4.000000,4.000000,4.000000,4.000000,66.666664
1600453979.505498,27.000000,0.000000,4118.461426,4762.563965,4404.102539,4386.666504,4243.077148,4856.922852,4274.871582,4133.333496,4517.948730,4269.743652,4437.436035,4392.307617,4327.179688,4219.487305,0.000000,4.000000,,,,0.000000,4.000000,4.000000,4.000000,4.000000,4.000000,2.000000,2.000000,4.000000,4.000000,4.000000,4.000000,4.000000,4.000000,4.000000,66.666664
1600453979.513420,28.000000,0.000000,4128.205078,4770.769043,4406.666504,4388.717773,4235.897461,4863.077148,4273.846191,4148.205078,4561.538574,4295.897461,4443.589844,4391.794922,4328.205078,4219.487305,0.000000,4.000000,,,,0.000000,4.000000,4.000000,4.000000,4.000000,4.000000,2.000000,2.000000,4.000000,4.000000,4.000000,4.000000,4.000000,4.000000,4.000000,66.666664
1600453979.521242,29.000000,0.000000,4122.563965,4762.563965,4406.153809,4385.128418,4214.358887,4845.641113,4260.512695,4133.333496,4525.128418,4324.615234,4440.512695,4389.230957,4328.205078,4214.358887,0.000000,4.000000,,,,0.000000,4.000000,4.000000,4.000000,4.000000,4.000000,2.000000,2.000000,4.000000,4.000000,4.000000,4.000000,4.000000,4.000000,4.000000,66.666664
1600453979.529163,30.000000,0.000000,4116.410156,4753.846191,4403.589844,4382.051270,4223.589844,4834.871582,4255.897461,4115.897461,4485.128418,4301.025879,4437.436035,4388.717773,4329.743652,4215.897461,0.000000,4.000000,,,,0.000000,4.000000,4.000000,4.000000,4.000000,4.000000,2.000000,2.000000,4.000000,4.000000,4.000000,4.000000,4.000000,4.000000,4.000000,66.666664
1600453979.536985,31.000000,0.000000,4125.641113,4764.615234,4407.692383,4391.794922,4244.102539,4847.692383,4257.948730,4124.615234,4492.820313,4288.205078,4448.717773,4397.436035,4338.461426,4227.692383,0.000000,4.000000,,,,0.000000,4.000000,4.000000,4.000000,4.000000,4.000000,2.000000,2.000000,4.000000,4.000000,4.000000,4.000000,4.000000,4.000000,4.000000,66.666664
1600453979.544906,32.000000,0.000000,4133.333496,4772.307617,4415.384766,4400.000000,4240.000000,4858.974121,4258.461426,4134.358887,4521.538574,4293.846191,4452.307617,4403.589844,4340.000000,4234.358887,0.000000,4.000000,,,,0.000000,4.000000,4.000000,4.000000,4.000000,4.000000,2.000000,2.000000,4.000000,4.000000,4.000000,4.000000,4.000000,4.000000,4.000000,66.666664
1600453979.552728,33.000000,0.000000,4138.974121,4769.743652,4420.512695,4401.025879,4232.307617,4854.871582,4263.589844,4137.436035,4565.128418,4295.897461,4442.051270,4403.077148,4334.358887,4231.794922,0.000000,4.000000,,,,0.000000,4.000000,4.000000,4.000000,4.000000,4.000000,2.000000,2.000000,4.000000,4.000000,4.000000,4.000000,4.000000,4.000000,4.000000,66.666664
1600453979.560450,34.000000,0.000000,4140.512695,4765.641113,4414.358887,4395.384766,4233.333496,4846.666504,4258.461426,4131.794922,4524.615234,4313.846191,4440.000000,4403.077148,4332.820313,4226.666504,0.000000,4.000000,,,,0.000000,4.000000,4.000000,4.000000,4.000000,4.000000,2.000000,2.000000,4.000000,4.000000,4.000000,4.000000,4.000000,4.000000,4.000000,66.666664
1600453979.568271,35.000000,0.000000,4137.436035,4770.769043,4413.846191,4395.897461,4233.846191,4851.794922,4255.384766,4127.692383,4462.051270,4311.282227,4453.846191,4408.717773,4342.051270,4232.820313,0.000000,4.000000,,,,0.000000,4.000000,4.000000,4.000000,4.000000,4.000000,2.000000,2.000000,4.000000,4.000000,4.000000,4.000000,4.000000,4.000000,4.000000,66.666664
1600453979.575993,36.000000,0.000000,4134.871582,4772.307617,4419.487305,4397.948730,4229.230957,4859.487305,4262.051270,4136.922852,4523.077148,4285.641113,4454.871582,4404.615234,4343.589844,4236.410156,0.000000,4.000000,,,,0.000000,4.000000,4.000000,4.000000,4.000000,4.000000,2.000000,2.000000,4.000000,4.000000,4.000000,4.000000,4.000000,4.000000,4.000000,66.666664
1600453979.583814,37.000000,0.000000,4138.461426,4767.179688,4415.384766,4393.333496,4233.333496,4853.333496,4257.436035,4141.538574,4564.102539,4316.410156,4447.179688,4395.384766,4337.948730,4228.717773,0.000000,4.000000,,,,0.000000,4.000000,4.000000,4.000000,4.000000,4.000000,2.000000,2.000000,4.000000,4.000000,4.000000,4.000000,4.000000,4.000000,4.000000,66.666664
1600453979.591536,38.000000,0.000000,4123.077148,4761.025879,4407.179688,4388.717773,4249.743652,4846.666504,4245.641113,4132.820313,4505.641113,4340.512695,4446.666504,4390.769043,4336.922852,4223.589844,0.000000,4.000000,,,,0.000000,4.000000,4.000000,4.000000,4.000000,4.000000,2.000000,2.000000,4.000000,4.000000,4.000000,4.000000,4.000000,4.000000,4.000000,66.666664
1600453979.599357,39.000000,0.000000,4097.948730,4764.615234,4410.769043,4393.333496,4247.692383,4862.563965,4257.436035,4142.051270,4511.794922,4285.128418,4445.641113,4391.794922,4339.487305,4228.205078,0.000000,4.000000,,,,0.000000,4.000000,4.000000,4.000000,4.000000,4.000000,2.000000,2.000000,4.000000,4.000000,4.000000,4.000000,4.000000,4.000000,4.000000,66.666664
1600453979.607079,40.000000,0.000000,4093.846191,4769.230957,4412.820313,4394.871582,4217.436035,4862.051270,4261.025879,4145.641113,4550.256348,4248.717773,4443.077148,4390.769043,4336.410156,4228.205078,0.000000,4.000000,,,,0.000000,4.000000,4.000000,4.000000,4.000000,4.000000,2.000000,2.000000,4.000000,4.000000,4.000000,4.000000,4.000000,4.000000,4.000000,66.666664
1600453979.614900,41.000000,0.000000,4097.948730,4762.563965,4405.128418,4389.230957,4207.179688,4833.333496,4242.563965,4120.512695,4524.615234,4283.077148,4445.128418,4388.717773,4331.794922,4225.128418,0.000000,4.000000,,,,0.000000,4.000000,4.000000,4.000000,4.000000,4.000000,2.000000,2.000000,4.000000,4.000000,4.000000,4.000000,4.000000,4.000000,4.000000,66.666664
1600453979.622621,42.000000,0.000000,4095.384521,4758.461426,4398.461426,4387.179688,4240.512695,4837.436035,4239.487305,4106.153809,4505.128418,4313.333496,4443.589844,4391.794922,4333.333496,4226.666504,0.000000,4.000000,,,,0.000000,4.000000,4.000000,4.000000,4.000000,4.000000,2.000000,2.000000,4.000000,4.000000,4.000000,4.000000,4.000000,4.000000,4.000000,66.666664
1600453979.630443,43.000000,0.000000,4098.461426,4763.589844,4397.948730,4390.256348,4257.948730,4863.589844,4246.153809,4114.358887,4508.205078,4300.512695,4440.512695,4389.230957,4333.333496,4225.641113,0.000000,4.000000,,,,0.000000,4.000000,4.000000,4.000000,4.000000,4.000000,2.000000,2.000000,4.000000,4.000000,4.000000,4.000000,4.000000,4.000000,4.000000,66.666664
1600453979.638164,44.000000,0.000000,4108.717773,4763.589844,4398.461426,4391.794922,4225.641113,4852.820313,4237.436035,4117.436035,4502.563965,4265.128418,4438.461426,4380.000000,4321.538574,4225.641113,0.000000,4.000000,,,,0.000000,4.000000,4.000000,4.000000,4.000000,4.000000,2.000000,2.000000,4.000000,4.000000,4.000000,4.000000,4.000000,4.000000,4.000000,66.666664
1600453979.646086,45.000000,0.000000,4113.333496,4761.025879,4396.922852,4391.282227,4212.820313,4840.000000,4235.384766,4119.487305,4523.589844,4257.948730,4438.461426,4380.000000,4315.897461,4229.743652,0.000000,4.000000,,,,0.000000,4.000000,4.000000,4.000000,4.000000,4.000000,2.000000,2.000000,4.000000,4.000000,4.000000,4.000000,4.000000,4.000000,4.000000,66.666664
1600453979.653908,46.000000,0.000000,4117.948730,4765.128418,4397.436035,4395.384766,4244.102539,4857.948730,4253.333496,4138.461426,4546.666504,4306.153809,4447.179688,4389.743652,4331.282227,4236.410156,0.000000,4.000000,,,,0.000000,4.000000,4.000000,4.000000,4.000000,4.000000,2.000000,2.000000,4.000000,4.000000,4.000000,4.000000,4.000000,4.000000,4.000000,66.666664
1600453979.661830,47.000000,0.000000,4120.512695,4764.615234,4397.436035,4392.307617,4237.436035,4863.077148,4260.000000,4142.563965,4510.256348,4323.589844,4456.922852,4393.846191,4345.128418,4240.512695,0.000000,4.000000,,,,0.000000,4.000000,4.000000,4.000000,4.000000,4.000000,2.000000,2.000000,4.000000,4.000000,4.000000,4.000000,4.000000,4.000000,4.000000,66.666664
1600453979.669652,48.000000,0.000000,4123.077148,4769.230957,4403.077148,4390.769043,4221.538574,4851.794922,4255.897461,4131.282227,4491.282227,4285.641113,4460.512695,4398.461426,4346.666504,4244.102539,0.000000,4.000000,,,,0.000000,4.000000,4.000000,4.000000,4.000000,4.000000,2.000000,2.000000,4.000000,4.000000,4.000000,4.000000,4.000000,4.000000,4.000000,66.666664
1600453979.677573,49.000000,0.000000,4129.743652,4774.358887,4410.256348,4396.922852,4249.230957,4844.615234,4252.820313,4137.436035,4533.333496,4286.153809,4456.410156,4404.102539,4345.641113,4246.666504,0.000000,4.000000,,,,0.000000,4.000000,4.000000,4.000000,4.000000,4.000000,2.000000,2.000000,4.000000,4.000000,4.000000,4.000000,4.000000,4.000000,4.000000,66.666664
1600453979.685395,50.000000,0.000000,4138.461426,4777.436035,4416.410156,4409.743652,4265.641113,4855.384766,4264.615234,4162.563965,4577.436035,4337.948730,4463.589844,4411.794922,4358.461426,4259.487305,0.000000,4.000000,,,,0.000000,4.000000,4.000000,4.000000,4.000000,4.000000,2.000000,2.000000,4.000000,4.000000,4.000000,4.000000,4.000000,4.000000,4.000000,66.666664
1600453979.693317,51.000000,0.000000,4131.794922,4773.846191,4410.769043,4404.615234,4242.051270,4857.948730,4263.589844,4155.897461,4565.641113,4336.922852,4467.179688,4407.179688,4360.512695,4260.512695,0.000000,4.000000,,,,0.000000,4.000000,4.000000,4.000000,4.000000,4.000000,2.000000,2.000000,4.000000,4.000000,4.000000,4.000000,4.000000,4.000000,4.000000,66.666664
1600453979.701139,52.000000,0.000000,4129.743652,4777.436035,4408.205078,4398.461426,4236.922852,4854.871582,4249.230957,4132.307617,4529.743652,4302.051270,4465.641113,4401.538574,4356.922852,4251.282227,0.000000,4.000000,,,,0.000000,4.000000,4.000000,4.000000,4.000000,4.000000,2.000000,2.000000,4.000000,4.000000,4.000000,4.000000,4.000000,4.000000,4.000000,66.666664
1600453979.709060,53.000000,0.000000,4138.461426,4783.589844,4413.333496,4406.153809,4249.743652,4858.974121,4246.666504,4136.410156,4526.153809,4301.025879,4466.666504,4409.230957,4363.077148,4253.333496,0.000000,4.000000,,,,0.000000,4.000000,4.000000,4.000000,4.000000,4.000000,2.000000,2.000000,4.000000,4.000000,4.000000,4.000000,4.000000,4.000000,4.000000,66.666664
1600453979.716882,54.000000,0.000000,4143.077148,4787.179688,4417.948730,4412.820313,4251.282227,4867.179688,4255.384766,4149.230957,4548.205078,4312.307617,4466.666504,4418.461426,4367.179688,4261.538574,0.000000,4.000000,,,,0.000000,4.000000,4.000000,4.000000,4.000000,4.000000,2.000000,2.000000,4.000000,4.000000,4.000000,4.000000,4.000000,4.000000,4.000000,66.666664
1600453979.724803,55.000000,0.000000,4139.487305,4786.666504,4415.897461,4410.256348,4247.179688,4869.743652,4256.410156,4147.692383,4567.692383,4301.025879,4460.512695,4414.871582,4353.846191,4260.000000,0.000000,4.000000,,,,0.000000,4.000000,4.000000,4.000000,4.000000,4.000000,2.000000,2.000000,4.000000,4.000000,4.000000,4.000000,4.000000,4.000000,4.000000,66.666664
1600453979.732625,56.000000,0.000000,4135.384766,4782.563965,4409.230957,4405.641113,4252.307617,4862.563965,4250.769043,4136.410156,4523.077148,4316.922852,4459.487305,4409.230957,4345.128418,4253.333496,0.000000,4.000000,,,,0.000000,4.000000,4.000000,4.000000,4.000000,4.000000,2.000000,2.000000,4.000000,4.000000,4.000000,4.000000,4.000000,4.000000,4.000000,66.666664
1600453979.740347,57.000000,0.000000,4124.102539,4768.717773,4395.897461,4392.820313,4250.256348,4840.512695,4240.000000,4114.358887,4460.000000,4331.794922,4452.820313,4399.487305,4334.871582,4242.563965,0.000000,4.000000,,,,0.000000,4.000000,4.000000,4.000000,4.000000,4.000000,2.000000,2.000000,4.000000,4.000000,4.000000,4.000000,4.000000,4.000000,4.000000,66.666664
1600453979.748168,58.000000,0.000000,4112.820313,4757.948730,4390.256348,4386.666504,4232.307617,4836.922852,4243.589844,4122.051270,4499.487305,4278.974121,4438.974121,4388.717773,4318.974121,4233.846191,0.000000,4.000000,,,,0.000000,4.000000,4.000000,4.000000,4.000000,4.000000,2.000000,2.000000,4.000000,4.000000,4.000000,4.000000,4.000000,4.000000,4.000000,66.666664
1600453979.755890,59.000000,0.000000,4123.589844,4769.743652,4400.000000,4400.512695,4228.205078,4869.743652,4267.179688,4154.358887,4563.077148,4258.974121,4450.256348,4396.922852,4329.230957,4244.615234,0.000000,4.000000,,,,0.000000,4.000000,4.000000,4.000000,4.000000,4.000000,2.000000,2.000000,4.000000,4.000000,4.000000,4.000000,4.000000,4.000000,4.000000,66.666664
1600453979.763712,60.000000,0.000000,4134.871582,4784.615234,4404.102539,4409.230957,4244.102539,4883.077148,4270.769043,4142.051270,4546.666504,4317.948730,4467.179688,4406.153809,4348.717773,4254.871582,0.000000,4.000000,,,,0.000000,4.000000,4.000000,4.000000,4.000000,4.000000,2.000000,2.000000,4.000000,4.000000,4.000000,4.000000,4.000000,4.000000,4.000000,66.666664
1600453979.771433,61.000000,0.000000,4130.256348,4780.000000,4398.974121,4400.512695,4250.256348,4854.871582,4252.307617,4122.051270,4538.461426,4328.205078,4460.512695,4401.538574,4342.051270,4250.769043,0.000000,4.000000,,,,0.000000,4.000000,4.000000,4.000000,4.000000,4.000000,2.000000,2.000000,4.000000,4.000000,4.000000,4.000000,4.000000,4.000000,4.000000,66.666664
1600453979.779255,62.000000,0.000000,4120.000000,4765.641113,4395.384766,4392.307617,4253.846191,4826.666504,4245.641113,4141.025879,4559.487305,4282.051270,4450.769043,4396.922852,4326.666504,4245.641113,0.000000,4.000000,,,,0.000000,4.000000,4.000000,4.000000,4.000000,4.000000,2.000000,2.000000,4.000000,4.000000,4.000000,4.000000,4.000000,4.000000,4.000000,66.666664
1600453979.786976,63.000000,0.000000,4129.743652,4775.897461,4405.641113,4403.077148,4263.589844,4841.025879,4256.922852,4145.641113,4504.615234,4302.051270,4464.102539,4407.692383,4339.487305,4256.922852,0.000000,4.000000,,,,0.000000,4.000000,4.000000,2.000000,4.000000,4.000000,2.000000,2.000000,4.000000,4.000000,4.000000,4.000000,4.000000,4.000000,4.000000,50.000000
1600453979.794797,64.000000,0.000000,4142.563965,4792.307617,4412.307617,4413.846191,4253.846191,4873.333496,4263.077148,4123.589844,4480.512695,4323.077148,4466.153809,4416.922852,4350.769043,4264.102539,359.000000,4.000000,,,,0.000000,4.000000,4.000000,2.000000,4.000000,4.000000,2.000000,2.000000,4.000000,4.000000,4.000000,4.000000,4.000000,4.000000,4.000000,50.000000
1600453979.802519,65.000000,0.000000,4142.563965,4792.307617,4410.769043,4411.794922,4259.487305,4877.948730,4265.128418,4133.333496,4568.717773,4294.871582,4456.410156,4412.820313,4340.000000,4258.461426,377.000000,4.000000,,,,0.000000,4.000000,4.000000,2.000000,4.000000,4.000000,2.000000,2.000000,4.000000,4.000000,4.000000,4.000000,4.000000,4.000000,4.000000,50.000000
1600453979.810441,66.000000,0.000000,4144.615234,4790.256348,4412.307617,4413.333496,4283.589844,4864.615234,4263.077148,4144.615234,4582.051270,4297.948730,4461.538574,4409.743652,4336.922852,4257.948730,406.000000,4.000000,,,,0.000000,4.000000,4.000000,2.000000,4.000000,4.000000,2.000000,2.000000,4.000000,4.000000,4.000000,4.000000,4.000000,4.000000,4.000000,50.000000
1600453979.818263,67.000000,0.000000,4153.846191,4800.000000,4421.538574,4423.077148,4291.794922,4866.666504,4265.128418,4139.487305,4528.717773,4316.922852,4472.820313,4416.922852,4348.717773,4266.153809,409.000000,4.000000,,,,0.000000,4.000000,4.000000,2.000000,4.000000,4.000000,2.000000,2.000000,4.000000,4.000000,4.000000,4.000000,4.000000,4.000000,4.000000,50.000000
1600453979.826185,68.000000,0.000000,4144.615234,4792.820313,4413.846191,4411.282227,4271.794922,4858.461426,4258.974121,4135.384766,4524.102539,4300.000000,4461.538574,4413.333496,4338.974121,4258.461426,433.000000,4.000000,,,,0.000000,4.000000,4.000000,2.000000,4.000000,4.000000,2.000000,2.000000,4.000000,4.000000,4.000000,4.000000,4.000000,4.000000,4.000000,50.000000
1600453979.834007,69.000000,0.000000,4141.538574,4787.179688,4411.794922,4408.205078,4256.922852,4852.307617,4250.769043,4134.871582,4534.871582,4307.179688,4455.897461,4413.333496,4334.358887,4257.436035,392.000000,4.000000,,,,0.000000,4.000000,4.000000,2.000000,4.000000,4.000000,2.000000,2.000000,4.000000,4.000000,4.000000,4.000000,4.000000,4.000000,4.000000,50.000000
1600453979.841929,70.000000,0.000000,4177.436035,4821.538574,4444.102539,4446.666504,4280.000000,4879.487305,4275.897461,4156.410156,4544.102539,4352.820313,4486.153809,4444.615234,4367.179688,4290.256348,412.000000,4.000000,,,,0.000000,4.000000,4.000000,2.000000,4.000000,4.000000,2.000000,2.000000,4.000000,4.000000,4.000000,4.000000,4.000000,4.000000,4.000000,50.000000
1600453979.849750,71.000000,0.000000,4222.051270,4871.794922,4482.051270,4485.641113,4336.410156,4924.615234,4327.179688,4200.512695,4596.922852,4365.128418,4524.615234,4486.666504,4406.666504,4329.743652,343.000000,4.000000,,,,0.000000,4.000000,4.000000,2.000000,4.000000,4.000000,2.000000,2.000000,4.000000,4.000000,4.000000,4.000000,4.000000,4.000000,4.000000,50.000000
1600453979.857672,72.000000,0.000000,4230.769043,4882.051270,4486.666504,4484.615234,4366.153809,4945.641113,4343.589844,4208.717773,4620.000000,4347.179688,4530.769043,4496.410156,4412.307617,4337.948730,350.000000,4.000000,,,,0.000000,4.000000,4.000000,2.000000,4.000000,4.000000,2.000000,2.000000,4.000000,4.000000,4.000000,4.000000,4.000000,4.000000,4.000000,50.000000
1600453979.865494,73.000000,0.000000,4224.102539,4871.794922,4476.410156,4471.794922,4357.948730,4932.307617,4327.692383,4194.871582,4590.256348,4361.538574,4522.563965,4492.820313,4405.128418,4333.333496,364.000000,4.000000,,,,0.000000,4.000000,4.000000,2.000000,4.000000,4.000000,2.000000,2.000000,4.000000,4.000000,4.000000,4.000000,4.000000,4.000000,4.000000,50.000000
1600453979.873416,74.000000,0.000000,4242.051270,4887.692383,4491.794922,4481.538574,4362.563965,4926.666504,4334.358887,4221.025879,4612.820313,4389.230957,4535.384766,4508.717773,4420.000000,4346.153809,383.000000,4.000000,,,,0.000000,4.000000,4.000000,2.000000,4.000000,4.000000,2.000000,2.000000,4.000000,4.000000,4.000000,4.000000,4.000000,4.000000,4.000000,50.000000
1600453979.881237,75.000000,0.000000,4271.282227,4915.384766,4517.948730,4504.102539,4386.666504,4944.615234,4357.948730,4247.179688,4626.153809,4420.512695,4561.025879,4530.769043,4447.692383,4366.666504,359.000000,4.000000,,,,0.000000,4.000000,4.000000,2.000000,4.000000,4.000000,2.000000,2.000000,4.000000,4.000000,4.000000,4.000000,4.000000,4.000000,4.000000,50.000000
1600453979.889159,76.000000,0.000000,4284.615234,4929.230957,4528.205078,4518.461426,4404.615234,4960.512695,4368.205078,4237.436035,4584.615234,4461.538574,4578.974121,4546.666504,4463.589844,4378.974121,359.000000,4.000000,,,,0.000000,4.000000,4.000000,2.000000,4.000000,4.000000,2.000000,2.000000,4.000000,4.000000,4.000000,4.000000,4.000000,4.000000,4.000000,50.000000
1600453979.896981,77.000000,0.000000,4291.794922,4937.948730,4532.820313,4524.102539,4416.922852,4978.974121,4378.461426,4248.205078,4622.051270,4457.948730,4577.948730,4554.871582,4463.589844,4387.692383,359.000000,4.000000,,,,0.000000,4.000000,4.000000,2.000000,4.000000,4.000000,2.000000,2.000000,4.000000,4.000000,4.000000,4.000000,4.000000,4.000000,4.000000,50.000000
1600453979.904902,78.000000,0.000000,4303.589844,4949.230957,4543.589844,4528.717773,4429.743652,5001.025879,4398.974121,4286.666504,4715.384766,4425.641113,4572.307617,4555.384766,4468.205078,4395.897461,383.000000,4.000000,,,,0.000000,4.000000,4.000000,2.000000,4.000000,4.000000,2.000000,2.000000,4.000000,4.000000,4.000000,4.000000,4.000000,4.000000,4.000000,50.000000
1600453979.912724,79.000000,0.000000,4305.128418,4952.820313,4547.692383,4530.256348,4435.384766,4996.410156,4405.641113,4294.358887,4687.692383,4437.436035,4577.436035,4554.871582,4477.436035,4398.974121,359.000000,4.000000,,,,0.000000,4.000000,4.000000,2.000000,4.000000,4.000000,2.000000,2.000000,4.000000,4.000000,4.000000,4.000000,4.000000,4.000000,4.000000,50.000000
1600453979.920445,80.000000,0.000000,4308.205078,4958.974121,4553.846191,4539.487305,4434.871582,4996.922852,4405.128418,4282.051270,4617.948730,4463.589844,4596.410156,4569.743652,4490.769043,4409.743652,359.000000,4.000000,,,,0.000000,4.000000,4.000000,2.000000,4.000000,4.000000,2.000000,2.000000,4.000000,4.000000,4.000000,4.000000,4.000000,4.000000,4.000000,50.000000
1600453979.928267,81.000000,0.000000,4314.358887,4960.000000,4558.974121,4540.512695,4428.717773,5001.025879,4397.436035,4272.820313,4641.025879,4446.153809,4597.948730,4575.384766,4490.769043,4413.846191,359.000000,4.000000,,,,0.000000,4.000000,4.000000,2.000000,4.000000,4.000000,2.000000,2.000000,4.000000,4.000000,4.000000,4.000000,4.000000,4.000000,4.000000,50.000000
1600453979.935989,82.000000,0.000000,4319.487305,4957.436035,4556.410156,4534.871582,4433.846191,4979.487305,4386.666504,4269.230957,4669.230957,4445.641113,4588.205078,4567.692383,4483.589844,4410.769043,383.000000,4.000000,,,,0.000000,4.000000,4.000000,2.000000,4.000000,4.000000,2.000000,2.000000,4.000000,4.000000,4.000000,4.000000,4.000000,4.000000,4.000000,50.000000
1600453979.943810,83.000000,0.000000,4321.025879,4962.563965,4554.358887,4537.436035,4438.461426,4985.128418,4393.846191,4282.051270,4656.410156,4460.512695,4591.282227,4568.717773,4485.128418,4411.282227,359.000000,4.000000,,,,0.000000,4.000000,4.000000,2.000000,4.000000,4.000000,2.000000,2.000000,4.000000,4.000000,4.000000,4.000000,4.000000,4.000000,4.000000,50.000000
1600453979.951532,84.000000,0.000000,4320.000000,4968.205078,4556.922852,4543.077148,4442.051270,5017.436035,4416.922852,4305.128418,4671.282227,4447.692383,4597.436035,4575.384766,4491.794922,4412.307617,359.000000,4.000000,,,,0.000000,4.000000,4.000000,2.000000,4.000000,4.000000,2.000000,2.000000,4.000000,4.000000,4.000000,4.000000,4.000000,4.000000,4.000000,50.000000
1600453979.959353,85.000000,0.000000,4308.717773,4955.897461,4546.666504,4532.307617,4433.333496,4995.897461,4403.077148,4293.846191,4671.282227,4446.153809,4586.153809,4567.179688,4484.615234,4402.563965,359.000000,4.000000,,,,0.000000,4.000000,4.000000,2.000000,4.000000,4.000000,2.000000,2.000000,4.000000,4.000000,4.000000,4.000000,4.000000,4.000000,4.000000,50.000000
1600453979.967074,86.000000,0.000000,4304.102539,4952.820313,4541.538574,4528.717773,4425.128418,4981.538574,4388.205078,4270.256348,4623.589844,4471.282227,4585.128418,4566.666504,4485.641113,4402.051270,383.000000,4.000000,,,,0.000000,4.000000,4.000000,2.000000,4.000000,4.000000,2.000000,2.000000,4.000000,4.000000,4.000000,4.000000,4.000000,4.000000,4.000000,50.000000
1600453979.974896,87.000000,0.000000,4300.512695,4952.820313,4541.538574,4527.692383,4423.077148,4992.820313,4400.000000,4266.153809,4608.717773,4456.922852,4588.205078,4569.230957,4488.717773,4404.102539,359.000000,4.000000,,,,0.000000,4.000000,4.000000,2.000000,4.000000,4.000000,2.000000,2.000000,4.000000,4.000000,4.000000,4.000000,4.000000,4.000000,4.000000,50.000000
1600453979.982617,88.000000,0.000000,4288.717773,4940.000000,4531.794922,4515.384766,4423.077148,4960.512695,4386.666504,4261.538574,4648.717773,4430.769043,4575.384766,4560.512695,4476.410156,4394.871582,359.000000,4.000000,,,,0.000000,4.000000,4.000000,2.000000,4.000000,4.000000,2.000000,2.000000,4.000000,4.000000,4.000000,4.000000,4.000000,4.000000,4.000000,50.000000
1600453979.990439,89.000000,0.000000,4285.128418,4936.922852,4529.230957,4513.333496,4427.692383,4951.794922,4365.641113,4260.512695,4673.846191,4456.922852,4571.794922,4557.948730,4474.358887,4388.205078,359.000000,4.000000,,,,0.000000,4.000000,4.000000,2.000000,4.000000,4.000000,2.000000,2.000000,4.000000,4.000000,4.000000,4.000000,4.000000,4.000000,4.000000,50.000000
1600453979.998160,90.000000,0.000000,4303.589844,4958.461426,4550.256348,4533.846191,4428.205078,5015.897461,4394.871582,4288.717773,4679.487305,4492.820313,4594.871582,4578.461426,4502.051270,4401.538574,383.000000,4.000000,,,,0.000000,4.000000,4.000000,2.000000,4.000000,4.000000,2.000000,2.000000,4.000000,4.000000,4.000000,4.000000,4.000000,4.000000,4.000000,50.000000
1600453980.005981,91.000000,0.000000,4343.077148,4999.487305,4584.615234,4570.256348,4449.230957,5072.307617,4450.256348,4331.282227,4708.205078,4511.282227,4632.307617,4615.897461,4543.077148,4437.436035,359.000000,4.000000,,,,0.000000,4.000000,4.000000,2.000000,4.000000,4.000000,2.000000,2.000000,4.000000,4.000000,4.000000,4.000000,4.000000,4.000000,4.000000,50.000000
1600453980.013702,92.000000,0.000000,4367.692383,5026.153809,4602.051270,4592.307617,4489.230957,5060.000000,4465.128418,4342.563965,4710.256348,4514.871582,4648.205078,4638.974121,4560.000000,4461.538574,359.000000,4.000000,,,,0.000000,4.000000,4.000000,2.000000,4.000000,4.000000,2.000000,2.000000,4.000000,4.000000,4.000000,4.000000,4.000000,4.000000,4.000000,50.000000
1600453980.021524,93.000000,0.000000,4350.769043,5004.102539,4592.307617,4575.384766,4502.563965,4995.384766,4430.769043,4313.846191,4638.461426,4507.692383,4636.922852,4630.769043,4546.153809,4450.256348,359.000000,4.000000,,,,0.000000,4.000000,4.000000,2.000000,4.000000,4.000000,2.000000,2.000000,4.000000,4.000000,4.000000,4.000000,4.000000,4.000000,4.000000,50.000000
1600453980.029245,94.000000,0.000000,4350.769043,4994.358887,4607.179688,4574.871582,4498.974121,5001.025879,4436.410156,4317.948730,4666.153809,4528.205078,4644.615234,4637.948730,4553.333496,4454.358887,383.000000,4.000000,,,,0.000000,4.000000,4.000000,2.000000,4.000000,4.000000,2.000000,2.000000,4.000000,4.000000,4.000000,4.000000,4.000000,4.000000,4.000000,50.000000
1600453980.037166,95.000000,0.000000,4411.794922,5058.974121,4657.948730,4628.205078,4531.794922,5121.025879,4524.615234,4400.512695,4821.538574,4593.846191,4684.102539,4683.077148,4598.974121,4501.538574,359.000000,4.000000,,,,0.000000,4.000000,4.000000,2.000000,4.000000,4.000000,2.000000,2.000000,4.000000,4.000000,4.000000,4.000000,4.000000,4.000000,4.000000,50.000000
1600453980.044988,96.000000,0.000000,4448.717773,5110.769043,4672.820313,4653.846191,4575.384766,5172.820313,4570.769043,4446.666504,4848.717773,4612.307617,4693.846191,4697.436035,4610.769043,4524.102539,359.000000,4.000000,,,,0.000000,4.000000,4.000000,2.000000,4.000000,4.000000,2.000000,2.000000,4.000000,4.000000,4.000000,4.000000,4.000000,4.000000,4.000000,50.000000
1600453980.052910,97.000000,0.000000,4438.974121,5111.282227,4657.436035,4637.436035,4583.077148,5118.461426,4534.358887,4405.641113,4746.153809,4576.410156,4674.358887,4676.410156,4583.077148,4507.179688,359.000000,4.000000,,,,0.000000,4.000000,4.000000,2.000000,4.000000,4.000000,2.000000,2.000000,4.000000,4.000000,4.000000,4.000000,4.000000,4.000000,4.000000,50.000000
1600453980.060732,98.000000,0.000000,4436.410156,5117.948730,4657.948730,4637.948730,4576.410156,5092.820313,4509.230957,4374.871582,4723.077148,4561.025879,4662.051270,4667.179688,4563.077148,4494.358887,383.000000,4.000000,,,,0.000000,4.000000,4.000000,2.000000,4.000000,4.000000,2.000000,2.000000,4.000000,4.000000,4.000000,4.000000,4.000000,4.000000,4.000000,50.000000
1600453980.068653,99.000000,0.000000,4446.666504,5136.922852,4664.102539,4651.794922,4586.153809,5099.487305,4523.077148,4393.846191,4761.025879,4570.256348,4652.307617,4667.179688,4549.230957,4492.307617,359.000000,4.000000,,,,0.000000,4.000000,4.000000,2.000000,4.000000,4.000000,2.000000,2.000000,4.000000,4.000000,4.000000,4.000000,4.000000,4.000000,4.000000,50.000000
1600453980.076475,100.000000,0.000000,4443.077148,5145.128418,4660.512695,4652.307617,4599.487305,5102.051270,4531.282227,4396.922852,4736.922852,4576.922852,4643.077148,4663.077148,4530.256348,4488.717773,359.000000,4.000000,,,,0.000000,4.000000,4.000000,2.000000,4.000000,4.000000,2.000000,2.000000,4.000000,4.000000,4.000000,4.000000,4.000000,4.000000,4.000000,50.000000
1600453980.084397,101.000000,0.000000,4453.333496,5166.153809,4669.743652,4663.077148,4604.102539,5140.512695,4542.563965,4396.922852,4737.436035,4585.128418,4651.794922,4674.871582,4529.230957,4492.820313,359.000000,4.000000,,,,0.000000,4.000000,4.000000,2.000000,4.000000,4.000000,2.000000,2.000000,4.000000,4.000000,4.000000,4.000000,4.000000,4.000000,4.000000,50.000000
1600453980.092218,102.000000,0.000000,4464.102539,5182.051270,4676.410156,4671.794922,4593.846191,5152.820313,4543.589844,4411.794922,4780.000000,4570.769043,4652.820313,4680.512695,4529.230957,4490.769043,383.000000,4.000000,,,,0.000000,4.000000,4.000000,2.000000,4.000000,4.000000,2.000000,2.000000,4.000000,4.000000,4.000000,4.000000,4.000000,4.000000,4.000000,50.000000
1600453980.100140,103.000000,0.000000,4453.846191,5173.846191,4671.794922,4668.717773,4585.128418,5115.897461,4529.743652,4411.794922,4776.922852,4547.179688,4642.563965,4671.282227,4525.641113,4483.589844,359.000000,4.000000,,,,0.000000,4.000000,4.000000,2.000000,4.000000,4.000000,2.000000,2.000000,4.000000,4.000000,4.000000,4.000000,4.000000,4.000000,4.000000,50.000000
1600453980.107961,104.000000,0.000000,4431.794922,5155.384766,4659.487305,4654.871582,4577.948730,5089.230957,4510.256348,4386.666504,4724.615234,4560.000000,4637.948730,4665.641113,4524.615234,4475.897461,359.000000,4.000000,,,,0.000000,4.000000,4.000000,2.000000,4.000000,4.000000,2.000000,2.000000,4.000000,4.000000,4.000000,4.000000,4.000000,4.000000,4.000000,50.000000
1600453980.115683,105.000000,0.000000,4427.179688,5150.256348,4653.846191,4645.128418,4587.692383,5097.436035,4494.358887,4368.205078,4706.153809,4585.641113,4641.538574,4671.282227,4528.717773,4477.436035,359.000000,4.000000,,,,0.000000,4.000000,4.000000,2.000000,4.000000,4.000000,2.000000,2.000000,4.000000,4.000000,4.000000,4.000000,4.000000,4.000000,4.000000,50.000000
1600453980.123504,106.000000,0.000000,4435.384766,5151.794922,4657.948730,4647.179688,4593.333496,5094.358887,4486.666504,4368.205078,4733.846191,4555.384766,4636.922852,4670.769043,4526.666504,4478.974121,383.000000,4.000000,,,,0.000000,4.000000,4.000000,2.000000,4.000000,4.000000,2.000000,2.000000,4.000000,4.000000,4.000000,4.000000,4.000000,4.000000,4.000000,50.000000
1600453980.131226,107.000000,0.000000,4414.358887,5126.153809,4642.051270,4637.436035,4542.563965,5049.230957,4472.820313,4362.051270,4723.589844,4502.051270,4613.846191,4647.179688,4507.179688,4457.436035,359.000000,4.000000,,,,0.000000,4.000000,4.000000,2.000000,4.000000,4.000000,2.000000,2.000000,4.000000,4.000000,4.000000,4.000000,4.000000,4.000000,4.000000,50.000000
1600453980.139048,108.000000,0.000000,4379.487305,5092.307617,4614.358887,4614.358887,4496.410156,5020.512695,4452.820313,4343.077148,4683.589844,4499.487305,4594.871582,4624.102539,4487.692383,4431.794922,359.000000,4.000000,,,,0.000000,4.000000,4.000000,2.000000,4.000000,4.000000,2.000000,2.000000,4.000000,4.000000,4.000000,4.000000,4.000000,4.000000,4.000000,50.000000
1600453980.146769,109.000000,0.000000,4377.436035,5091.282227,4614.871582,4607.692383,4519.487305,5056.922852,4455.897461,4336.410156,4688.205078,4523.589844,4603.077148,4629.743652,4488.717773,4434.358887,359.000000,4.000000,,,,0.000000,4.000000,4.000000,2.000000,4.000000,4.000000,2.000000,2.000000,4.000000,4.000000,4.000000,4.000000,4.000000,4.000000,4.000000,50.000000
1600453980.154590,110.000000,0.000000,4396.922852,5108.205078,4632.820313,4621.025879,4550.256348,5104.102539,4485.128418,4354.871582,4730.769043,4520.512695,4620.512695,4645.128418,4505.641113,4451.282227,383.000000,4.000000,,,,0.000000,4.000000,4.000000,2.000000,4.000000,4.000000,2.000000,2.000000,4.000000,4.000000,4.000000,4.000000,4.000000,4.000000,4.000000,50.000000
1600453980.162312,111.000000,0.000000,4391.282227,5102.051270,4624.102539,4618.974121,4523.077148,5090.256348,4488.717773,4354.871582,4738.974121,4498.461426,4610.769043,4637.948730,4504.102539,4445.641113,359.000000,4.000000,,,,0.000000,4.000000,4.000000,2.000000,4.000000,4.000000,2.000000,2.000000,4.000000,4.000000,4.000000,4.000000,4.000000,4.000000,4.000000,50.000000
1600453980.170133,112.000000,0.000000,4374.871582,5089.230957,4609.230957,4607.692383,4509.230957,5049.230957,4460.000000,4326.666504,4697.948730,4501.538574,4599.487305,4629.743652,4491.794922,4432.307617,359.000000,4.000000,,,,0.000000,4.000000,4.000000,2.000000,4.000000,4.000000,2.000000,2.000000,4.000000,4.000000,4.000000,4.000000,4.000000,4.000000,4.000000,50.000000
1600453980.177855,113.000000,0.000000,4373.846191,5085.128418,4610.256348,4606.153809,4526.666504,5044.102539,4444.615234,4311.282227,4650.769043,4513.333496,4605.641113,4635.897461,4489.230957,4433.846191,359.000000,4.000000,,,,0.000000,4.000000,4.000000,2.000000,4.000000,4.000000,2.000000,2.000000,4.000000,4.000000,4.000000,4.000000,4.000000,4.000000,4.000000,50.000000
1600453980.185676,114.000000,0.000000,4376.922852,5085.128418,4611.282227,4609.743652,4526.153809,5066.666504,4458.974121,4333.333496,4674.871582,4506.666504,4606.666504,4633.333496,4492.307617,4439.487305,383.000000,4.000000,,,,0.000000,4.000000,4.000000,2.000000,4.000000,4.000000,2.000000,2.000000,4.000000,4.000000,4.000000,4.000000,4.000000,4.000000,4.000000,50.000000
1600453980.193397,115.000000,0.000000,4365.641113,5080.000000,4601.538574,4605.128418,4505.641113,5067.179688,4467.179688,4347.692383,4730.769043,4500.000000,4592.307617,4619.487305,4483.077148,4428.717773,359.000000,4.000000,,,,0.000000,4.000000,4.000000,2.000000,4.000000,4.000000,2.000000,2.000000,4.000000,4.000000,4.000000,4.000000,4.000000,4.000000,4.000000,50.000000
1600453980.201319,116.000000,0.000000,4357.948730,5075.384766,4601.025879,4603.589844,4504.102539,5036.410156,4456.410156,4334.871582,4726.666504,4498.461426,4588.717773,4617.948730,4474.871582,4421.025879,359.000000,4.000000,,,,0.000000,4.000000,4.000000,2.000000,4.000000,4.000000,2.000000,2.000000,4.000000,4.000000,4.000000,4.000000,4.000000,4.000000,4.000000,50.000000
1600453980.209141,117.000000,0.000000,4357.436035,5071.282227,4604.102539,4605.128418,4521.025879,5025.641113,4450.256348,4323.589844,4688.717773,4489.230957,4593.333496,4620.512695,4476.410156,4428.205078,359.000000,4.000000,,,,0.000000,4.000000,4.000000,2.000000,4.000000,4.000000,2.000000,2.000000,4.000000,4.000000,4.000000,4.000000,4.000000,4.000000,4.000000,50.000000
1600453980.217062,118.000000,0.000000,4361.025879,5074.871582,4608.717773,4608.205078,4523.077148,5056.410156,4463.589844,4330.256348,4689.230957,4493.846191,4603.077148,4625.641113,4485.128418,4436.922852,383.000000,4.000000,,,,0.000000,4.000000,4.000000,2.000000,4.000000,4.000000,2.000000,2.000000,4.000000,4.000000,4.000000,4.000000,4.000000,4.000000,4.000000,50.000000
1600453980.224884,119.000000,0.000000,4363.589844,5076.410156,4607.692383,4607.179688,4490.769043,5063.589844,4461.538574,4333.846191,4691.282227,4504.615234,4604.615234,4627.692383,4483.077148,4431.794922,359.000000,4.000000,,,,0.000000,4.000000,4.000000,2.000000,4.000000,4.000000,2.000000,2.000000,4.000000,4.000000,4.000000,4.000000,4.000000,4.000000,4.000000,50.000000
1600453980.232806,120.000000,0.000000,4367.179688,5076.922852,4604.102539,4608.717773,4480.512695,5053.333496,4451.794922,4331.794922,4697.436035,4511.794922,4602.051270,4625.641113,4477.948730,4427.692383,359.000000,4.000000,,,,0.000000,4.000000,4.000000,2.000000,4.000000,4.000000,2.000000,2.000000,4.000000,4.000000,4.000000,4.000000,4.000000,4.000000,4.000000,50.000000
1600453980.240628,121.000000,0.000000,4375.384766,5085.128418,4611.794922,4616.410156,4514.871582,5078.461426,4462.563965,4335.384766,4719.487305,4521.025879,4612.307617,4633.846191,4491.282227,4441.025879,359.000000,4.000000,,,,0.000000,4.000000,4.000000,2.000000,4.000000,4.000000,2.000000,2.000000,4.000000,4.000000,4.000000,4.000000,4.000000,4.000000,4.000000,50.000000
1600453980.248549,122.000000,0.000000,4378.974121,5088.205078,4618.461426,4617.948730,4533.846191,5071.282227,4455.897461,4321.025879,4690.256348,4502.563965,4620.000000,4641.538574,4503.589844,4443.077148,383.000000,4.000000,,,,0.000000,4.000000,4.000000,2.000000,4.000000,4.000000,2.000000,2.000000,4.000000,4.000000,4.000000,4.000000,4.000000,4.000000,4.000000,50.000000
1600453980.256371,123.000000,0.000000,4364.102539,5070.256348,4599.487305,4603.077148,4504.615234,4997.436035,4416.922852,4292.307617,4656.410156,4466.666504,4592.307617,4620.512695,4476.922852,4412.820313,359.000000,4.000000,,,,0.000000,4.000000,4.000000,2.000000,4.000000,4.000000,2.000000,2.000000,4.000000,4.000000,4.000000,4.000000,4.000000,4.000000,4.000000,50.000000
1600453980.264293,124.000000,0.000000,4356.922852,5064.615234,4589.230957,4599.487305,4480.512695,5002.563965,4420.512695,4295.384766,4680.000000,4484.615234,4577.948730,4607.692383,4457.436035,4396.410156,359.000000,4.000000,,,,0.000000,4.000000,4.000000,2.000000,4.000000,4.000000,2.000000,2.000000,4.000000,4.000000,4.000000,4.000000,4.000000,4.000000,4.000000,50.000000
1600453980.272114,125.000000,0.000000,4380.512695,5091.282227,4610.769043,4618.974121,4499.487305,5093.333496,4471.282227,4336.922852,4723.589844,4515.384766,4609.743652,4636.922852,4487.692383,4419.487305,359.000000,4.000000,,,,0.000000,4.000000,4.000000,2.000000,4.000000,4.000000,2.000000,2.000000,4.000000,4.000000,4.000000,4.000000,4.000000,4.000000,4.000000,50.000000
1600453980.280036,126.000000,0.000000,4380.512695,5091.282227,4611.794922,4616.410156,4525.128418,5092.820313,4471.794922,4349.230957,4722.563965,4490.769043,4615.897461,4643.077148,4495.384766,4418.461426,383.000000,4.000000,,,,0.000000,4.000000,4.000000,2.000000,4.000000,4.000000,2.000000,2.000000,4.000000,4.000000,4.000000,4.000000,4.000000,4.000000,4.000000,50.000000
1600453980.287857,127.000000,0.000000,4353.846191,5066.666504,4592.307617,4597.436035,4518.974121,5025.128418,4431.794922,4311.282227,4655.384766,4493.846191,4592.820313,4618.461426,4465.641113,4393.333496,359.000000,4.000000,,,,0.000000,4.000000,4.000000,2.000000,4.000000,4.000000,2.000000,2.000000,4.000000,4.000000,4.000000,4.000000,4.000000,4.000000,4.000000,50.000000
1600453980.295579,128.000000,0.000000,4358.461426,5069.743652,4594.358887,4602.051270,4493.333496,5017.436035,4428.205078,4296.410156,4625.641113,4515.897461,4592.820313,4615.897461,4463.589844,4392.307617,359.000000,4.000000,,,,0.000000,4.000000,4.000000,2.000000,4.000000,4.000000,2.000000,2.000000,4.000000,4.000000,4.000000,4.000000,4.000000,4.000000,4.000000,50.000000
1600453980.303400,0.000000,0.000000,4391.282227,5098.974121,4614.358887,4624.615234,4497.436035,5065.128418,4467.179688,4338.461426,4714.871582,4508.205078,4612.820313,4635.384766,4492.307617,4412.820313,356.000000,4.000000,,,,0.000000,4.000000,4.000000,2.000000,4.000000,4.000000,2.000000,2.000000,4.000000,4.000000,4.000000,4.000000,4.000000,4.000000,4.000000,50.000000
1600453980.311122,1.000000,0.000000,4398.461426,5107.179688,4618.974121,4626.666504,4513.333496,5093.846191,4486.153809,4356.922852,4779.487305,4494.871582,4620.000000,4641.025879,4501.025879,4421.538574,373.000000,4.000000,,,,0.000000,4.000000,4.000000,2.000000,4.000000,4.000000,2.000000,2.000000,4.000000,4.000000,4.000000,4.000000,4.000000,4.000000,4.000000,50.000000
1600453980.319044,2.000000,0.000000,4385.641113,5094.871582,4610.256348,4615.897461,4517.436035,5078.974121,4466.153809,4333.846191,4720.000000,4489.230957,4617.436035,4634.358887,4492.307617,4416.922852,401.000000,4.000000,,,,0.000000,4.000000,4.000000,2.000000,4.000000,4.000000,2.000000,2.000000,4.000000,4.000000,4.000000,4.000000,4.000000,4.000000,4.000000,50.000000
1600453980.326866,3.000000,0.000000,4374.358887,5080.000000,4601.025879,4604.102539,4503.077148,5036.922852,4438.974121,4314.871582,4652.307617,4484.615234,4607.692383,4625.641113,4481.538574,4403.077148,405.000000,4.000000,,,,0.000000,4.000000,4.000000,2.000000,4.000000,4.000000,2.000000,2.000000,4.000000,4.000000,4.000000,4.000000,4.000000,4.000000,4.000000,50.000000
1600453980.334689,4.000000,0.000000,4367.692383,5070.769043,4598.461426,4600.512695,4480.000000,5013.333496,4430.769043,4312.820313,4656.410156,4502.563965,4599.487305,4619.487305,4472.307617,4393.846191,426.000000,4.000000,,,,0.000000,4.000000,4.000000,2.000000,4.000000,4.000000,2.000000,2.000000,4.000000,4.000000,4.000000,4.000000,4.000000,4.000000,4.000000,50.000000
1600453980.342410,5.000000,0.000000,4368.717773,5069.230957,4601.538574,4605.128418,4476.410156,5023.589844,4435.384766,4316.922852,4702.051270,4505.128418,4598.461426,4618.974121,4468.205078,4398.461426,397.000000,4.000000,,,,0.000000,4.000000,4.000000,2.000000,4.000000,4.000000,2.000000,2.000000,4.000000,4.000000,4.000000,4.000000,4.000000,4.000000,4.000000,50.000000
1600453980.350231,6.000000,0.000000,4387.692383,5086.666504,4613.333496,4616.410156,4499.487305,5058.974121,4450.769043,4327.179688,4730.769043,4494.871582,4613.846191,4628.205078,4485.128418,4413.846191,408.000000,4.000000,,,,0.000000,4.000000,4.000000,2.000000,4.000000,4.000000,2.000000,2.000000,4.000000,4.000000,4.000000,4.000000,4.000000,4.000000,4.000000,50.000000
1600453980.357953,7.000000,0.000000,4395.384766,5094.871582,4617.948730,4617.436035,4513.333496,5071.794922,4455.897461,4315.897461,4674.871582,4518.461426,4625.128418,4632.820313,4501.538574,4417.948730,339.000000,4.000000,,,,0.000000,4.000000,4.000000,2.000000,4.000000,4.000000,2.000000,2.000000,4.000000,4.000000,4.000000,4.000000,4.000000,4.000000,4.000000,50.000000
1600453980.365774,8.000000,0.000000,4373.333496,5072.307617,4603.589844,4602.563965,4488.205078,5021.538574,4432.820313,4290.769043,4622.051270,4512.820313,4600.512695,4612.820313,4481.538574,4401.025879,347.000000,4.000000,,,,0.000000,4.000000,4.000000,2.000000,4.000000,4.000000,2.000000,2.000000,4.000000,4.000000,4.000000,4.000000,4.000000,4.000000,4.000000,50.000000
1600453980.373495,9.000000,0.000000,4356.922852,5052.820313,4591.794922,4592.307617,4455.897461,4986.153809,4411.282227,4289.230957,4661.025879,4461.538574,4574.871582,4591.282227,4455.897461,4387.179688,357.000000,4.000000,,,,0.000000,4.000000,4.000000,2.000000,4.000000,4.000000,2.000000,2.000000,4.000000,4.000000,4.000000,4.000000,4.000000,4.000000,4.000000,50.000000
1600453980.381417,10.000000,0.000000,4376.410156,5071.282227,4603.589844,4604.102539,4464.615234,5037.436035,4427.179688,4313.846191,4719.487305,4460.000000,4594.358887,4600.512695,4472.307617,4399.487305,387.000000,4.000000,,,,0.000000,4.000000,4.000000,2.000000,4.000000,4.000000,2.000000,2.000000,4.000000,4.000000,4.000000,4.000000,4.000000,4.000000,4.000000,50.000000
1600453980.389239,11.000000,0.000000,4396.410156,5094.871582,4613.846191,4615.384766,4492.307617,5076.922852,4438.974121,4330.769043,4727.179688,4496.410156,4617.948730,4615.384766,4493.846191,4412.307617,355.000000,4.000000,,,,0.000000,4.000000,4.000000,2.000000,4.000000,4.000000,2.000000,2.000000,4.000000,4.000000,4.000000,4.000000,4.000000,4.000000,4.000000,50.000000
1600453980.397161,12.000000,0.000000,4390.769043,5094.871582,4609.230957,4609.743652,4493.333496,5046.666504,4418.974121,4314.358887,4700.000000,4490.769043,4609.743652,4607.179688,4481.538574,4409.743652,362.000000,4.000000,,,,0.000000,4.000000,4.000000,2.000000,4.000000,4.000000,2.000000,2.000000,4.000000,4.000000,4.000000,4.000000,4.000000,4.000000,4.000000,50.000000
1600453980.404982,13.000000,0.000000,4381.538574,5088.205078,4602.563965,4602.051270,4482.051270,5021.538574,4410.256348,4305.128418,4682.563965,4471.282227,4602.051270,4594.871582,4469.230957,4405.641113,360.000000,4.000000,,,,0.000000,4.000000,4.000000,2.000000,4.000000,4.000000,2.000000,2.000000,4.000000,4.000000,4.000000,4.000000,4.000000,4.000000,4.000000,50.000000
1600453980.412904,14.000000,0.000000,4375.384766,5078.461426,4595.384766,4596.922852,4473.333496,5019.487305,4411.794922,4318.461426,4675.384766,4490.769043,4602.051270,4590.769043,4471.794922,4403.589844,387.000000,4.000000,,,,0.000000,4.000000,4.000000,2.000000,4.000000,4.000000,2.000000,2.000000,4.000000,4.000000,4.000000,4.000000,4.000000,4.000000,4.000000,50.000000
1600453980.420726,15.000000,0.000000,4375.384766,5080.000000,4600.512695,4603.077148,4463.077148,5024.615234,4411.282227,4316.410156,4677.948730,4509.743652,4607.179688,4594.871582,4481.025879,4411.282227,355.000000,4.000000,,,,0.000000,4.000000,4.000000,2.000000,4.000000,4.000000,2.000000,2.000000,4.000000,4.000000,4.000000,4.000000,4.000000,4.000000,4.000000,50.000000
1600453980.428648,16.000000,0.000000,4384.615234,5090.769043,4614.871582,4612.820313,4470.256348,5048.205078,4425.128418,4303.589844,4700.512695,4490.769043,4616.410156,4602.563965,4489.743652,4424.615234,0.000000,4.000000,,,,0.000000,4.000000,4.000000,2.000000,4.000000,4.000000,2.000000,2.000000,4.000000,4.000000,4.000000,4.000000,4.000000,4.000000,4.000000,50.000000
1600453980.436471,17.000000,0.000000,4389.230957,5092.820313,4612.820313,4610.769043,4491.794922,5056.922852,4434.358887,4311.794922,4715.897461,4488.717773,4615.897461,4600.512695,4489.743652,4425.641113,0.000000,4.000000,,,,0.000000,4.000000,4.000000,2.000000,4.000000,4.000000,2.000000,2.000000,4.000000,4.000000,4.000000,4.000000,4.000000,4.000000,4.000000,50.000000
1600453980.444293,18.000000,0.000000,4375.384766,5080.000000,4593.333496,4598.974121,4496.922852,5022.051270,4410.256348,4309.743652,4680.512695,4504.102539,4593.333496,4580.000000,4468.205078,4406.666504,0.000000,4.000000,,,,0.000000,4.000000,4.000000,2.000000,4.000000,4.000000,2.000000,2.000000,4.000000,4.000000,4.000000,4.000000,4.000000,4.000000,4.000000,50.000000
1600453980.452214,19.000000,0.000000,4373.333496,5081.025879,4598.461426,4605.128418,4482.051270,5015.384766,4403.077148,4300.512695,4663.589844,4497.948730,4588.205078,4577.948730,4457.436035,4408.205078,0.000000,4.000000,,,,0.000000,4.000000,4.000000,2.000000,4.000000,4.000000,2.000000,2.000000,4.000000,4.000000,4.000000,4.000000,4.000000,4.000000,4.000000,50.000000
1600453980.460136,20.000000,0.000000,4374.358887,5076.410156,4607.692383,4609.743652,4444.615234,5021.538574,4408.717773,4301.538574,4680.512695,4467.179688,4599.487305,4582.051270,4460.512695,4417.948730,0.000000,4.000000,,,,0.000000,4.000000,4.000000,2.000000,4.000000,4.000000,2.000000,2.000000,4.000000,4.000000,4.000000,4.000000,4.000000,4.000000,4.000000,50.000000
1600453980.467957,21.000000,0.000000,4372.307617,5065.641113,4599.487305,4608.717773,4435.384766,5014.871582,4400.000000,4301.025879,4682.051270,4463.589844,4605.128418,4572.820313,4470.256348,4422.563965,0.000000,4.000000,,,,0.000000,4.000000,4.000000,2.000000,4.000000,4.000000,2.000000,2.000000,4.000000,4.000000,4.000000,4.000000,4.000000,4.000000,4.000000,50.000000
1600453980.475679,22.000000,0.000000,4385.128418,5079.487305,4602.051270,4618.461426,4472.820313,5040.000000,4413.333496,4308.205078,4691.282227,4504.102539,4605.641113,4575.384766,4484.615234,4436.922852,0.000000,4.000000,,,,0.000000,4.000000,4.000000,2.000000,4.000000,4.000000,2.000000,2.000000,4.000000,4.000000,4.000000,4.000000,4.000000,4.000000,4.000000,50.000000
1600453980.483500,23.000000,0.000000,4399.487305,5100.512695,4619.487305,4632.820313,4499.487305,5078.974121,4452.820313,4338.461426,4728.717773,4538.461426,4617.948730,4593.846191,4501.538574,4458.974121,0.000000,4.000000,,,,0.000000,4.000000,4.000000,2.000000,4.000000,4.000000,2.000000,2.000000,4.000000,4.000000,4.000000,4.000000,4.000000,4.000000,4.000000,50.000000
1600453980.491222,24.000000,0.000000,4389.230957,5090.769043,4617.436035,4632.820313,4487.692383,5058.461426,4447.692383,4341.538574,4728.717773,4523.589844,4622.051270,4591.282227,4501.538574,4459.487305,0.000000,4.000000,,,,0.000000,4.000000,4.000000,2.000000,4.000000,4.000000,2.000000,2.000000,4.000000,4.000000,4.000000,4.000000,4.000000,4.000000,4.000000,50.000000
1600453980.499043,25.000000,0.000000,4373.333496,5070.769043,4601.025879,4627.179688,4470.256348,5017.436035,4408.717773,4313.846191,4697.948730,4494.871582,4608.205078,4571.282227,4481.025879,4443.077148,0.000000,4.000000,,,,0.000000,4.000000,4.000000,2.000000,4.000000,4.000000,2.000000,2.000000,4.000000,4.000000,4.000000,4.000000,4.000000,4.000000,4.000000,50.000000
1600453980.506764,26.000000,0.000000,4376.922852,5077.436035,4600.512695,4633.846191,4466.153809,5028.717773,4407.692383,4314.871582,4701.025879,4502.051270,4605.128418,4567.179688,4473.846191,4444.102539,0.000000,4.000000,,,,0.000000,4.000000,4.000000,2.000000,4.000000,4.000000,2.000000,2.000000,4.000000,4.000000,4.000000,4.000000,4.000000,4.000000,4.000000,50.000000
1600453980.514586,27.000000,0.000000,4390.769043,5102.563965,4611.282227,4648.717773,4480.512695,5053.846191,4430.256348,4324.102539,4700.512695,4512.307617,4620.000000,4574.871582,4490.256348,4458.461426,0.000000,4.000000,,,,0.000000,4.000000,4.000000,2.000000,4.000000,4.000000,2.000000,2.000000,4.000000,4.000000,4.000000,4.000000,4.000000,4.000000,4.000000,50.000000
1600453980.522307,28.000000,0.000000,4402.051270,5117.436035,4620.512695,4658.974121,4491.794922,5060.000000,4432.820313,4314.358887,4688.717773,4500.000000,4631.282227,4581.025879,4504.615234,4468.205078,0.000000,4.000000,,,,0.000000,4.000000,4.000000,2.000000,4.000000,4.000000,2.000000,2.000000,4.000000,4.000000,4.000000,4.000000,4.000000,4.000000,4.000000,50.000000
1600453980.530129,29.000000,0.000000,4397.948730,5108.205078,4617.436035,4655.897461,4478.974121,5053.846191,4425.128418,4312.820313,4703.589844,4492.820313,4624.102539,4575.897461,4498.461426,4465.641113,0.000000,4.000000,,,,0.000000,4.000000,4.000000,2.000000,4.000000,4.000000,2.000000,2.000000,4.000000,4.000000,4.000000,4.000000,4.000000,4.000000,4.000000,50.000000
1600453980.537850,30.000000,0.000000,4389.743652,5100.512695,4609.230957,4653.333496,4481.025879,5043.589844,4425.641113,4325.128418,4717.436035,4509.743652,4613.846191,4564.102539,4493.333496,4462.051270,0.000000,4.000000,,,,0.000000,4.000000,4.000000,2.000000,4.000000,4.000000,2.000000,2.000000,4.000000,4.000000,4.000000,4.000000,4.000000,4.000000,4.000000,50.000000
1600453980.545671,31.000000,0.000000,4392.820313,5107.692383,4609.743652,4661.538574,4493.333496,5041.025879,4426.666504,4325.641113,4701.025879,4518.461426,4611.794922,4561.025879,4494.358887,4462.051270,0.000000,4.000000,,,,0.000000,4.000000,4.000000,2.000000,4.000000,4.000000,2.000000,2.000000,4.000000,4.000000,4.000000,4.000000,4.000000,4.000000,4.000000,50.000000
1600453980.553392,32.000000,0.000000,4396.410156,5110.256348,4618.974121,4671.794922,4490.256348,5042.563965,4427.692383,4322.563965,4692.307617,4500.512695,4615.897461,4567.179688,4492.820313,4464.615234,0.000000,4.000000,,,,0.000000,4.000000,4.000000,2.000000,4.000000,4.000000,2.000000,2.000000,4.000000,4.000000,4.000000,4.000000,4.000000,4.000000,4.000000,50.000000
1600453980.561314,33.000000,0.000000,4392.307617,5104.102539,4616.922852,4671.794922,4491.282227,5043.589844,4427.692383,4322.051270,4698.974121,4490.769043,4614.358887,4561.538574,4487.179688,4464.102539,0.000000,4.000000,,,,0.000000,4.000000,4.000000,2.000000,4.000000,4.000000,2.000000,2.000000,4.000000,4.000000,4.000000,4.000000,4.000000,4.000000,4.000000,50.000000
1600453980.569136,34.000000,0.000000,4395.384766,5109.230957,4610.256348,4673.846191,4498.974121,5055.384766,4428.205078,4325.641113,4707.692383,4516.410156,4610.256348,4553.333496,4486.153809,4462.051270,0.000000,4.000000,,,,0.000000,4.000000,4.000000,2.000000,4.000000,4.000000,2.000000,2.000000,4.000000,4.000000,4.000000,4.000000,4.000000,4.000000,4.000000,50.000000
1600453980.577058,35.000000,0.000000,4393.333496,5113.333496,4610.769043,4676.922852,4486.666504,5058.974121,4429.230957,4333.846191,4711.282227,4518.461426,4606.666504,4551.282227,4483.589844,4460.000000,0.000000,4.000000,,,,0.000000,4.000000,4.000000,2.000000,4.000000,4.000000,2.000000,2.000000,4.000000,4.000000,4.000000,4.000000,4.000000,4.000000,4.000000,50.000000
1600453980.584879,36.000000,0.000000,4393.333496,5118.461426,4620.512695,4683.077148,4487.179688,5046.153809,4429.230957,4335.384766,4702.563965,4494.358887,4613.333496,4557.948730,4489.743652,4465.641113,0.000000,4.000000,,,,0.000000,4.000000,4.000000,2.000000,4.000000,4.000000,2.000000,2.000000,4.000000,4.000000,4.000000,4.000000,4.000000,4.000000,4.000000,50.000000
1600453980.592801,37.000000,0.000000,4403.077148,5122.563965,4628.717773,4692.307617,4496.922852,5048.205078,4426.153809,4326.666504,4696.922852,4508.205078,4629.743652,4566.666504,4508.717773,4476.922852,0.000000,4.000000,,,,0.000000,4.000000,4.000000,2.000000,4.000000,4.000000,2.000000,2.000000,4.000000,4.000000,4.000000,4.000000,4.000000,4.000000,4.000000,50.000000
1600453980.600623,38.000000,0.000000,4414.358887,5131.282227,4633.846191,4704.102539,4500.512695,5074.871582,4431.794922,4333.333496,4715.897461,4540.000000,4636.410156,4570.769043,4522.051270,4488.717773,0.000000,4.000000,,,,0.000000,4.000000,4.000000,2.000000,4.000000,4.000000,2.000000,2.000000,4.000000,4.000000,4.000000,4.000000,4.000000,4.000000,4.000000,50.000000
1600453980.608544,39.000000,0.000000,4413.846191,5136.410156,4631.282227,4701.538574,4506.666504,5072.820313,4429.743652,4347.179688,4724.615234,4534.358887,4622.051270,4562.563965,4509.743652,4485.641113,0.000000,4.000000,,,,0.000000,4.000000,4.000000,2.000000,4.000000,4.000000,2.000000,2.000000,4.000000,4.000000,4.000000,4.000000,4.000000,4.000000,4.000000,50.000000
1600453980.616366,40.000000,0.000000,4412.820313,5134.358887,4631.282227,4697.436035,4514.871582,5051.282227,4423.077148,4344.102539,4709.743652,4527.179688,4621.538574,4561.025879,4503.077148,4484.102539,0.000000,4.000000,,,,0.000000,4.000000,4.000000,2.000000,4.000000,4.000000,2.000000,2.000000,4.000000,4.000000,4.000000,4.000000,4.000000,4.000000,4.000000,50.000000
1600453980.624288,41.000000,0.000000,4418.461426,5135.897461,4635.897461,4701.538574,4510.256348,5063.077148,4433.333496,4340.000000,4718.461426,4540.000000,4637.436035,4568.717773,4514.358887,4495.384766,0.000000,4.000000,,,,0.000000,4.000000,4.000000,2.000000,4.000000,4.000000,2.000000,2.000000,4.000000,4.000000,4.000000,4.000000,4.000000,4.000000,4.000000,50.000000
1600453980.632109,42.000000,0.000000,4425.641113,5148.717773,4640.000000,4706.666504,4512.307617,5090.256348,4451.794922,4354.358887,4736.410156,4544.615234,4641.538574,4570.256348,4523.077148,4505.128418,0.000000,4.000000,,,,0.000000,4.000000,4.000000,2.000000,4.000000,4.000000,2.000000,2.000000,4.000000,4.000000,4.000000,4.000000,4.000000,4.000000,4.000000,50.000000
1600453980.640031,43.000000,0.000000,4427.179688,5153.846191,4638.461426,4706.666504,4513.333496,5071.282227,4441.025879,4344.615234,4701.025879,4533.846191,4634.871582,4564.102539,4521.538574,4504.102539,0.000000,4.000000,,,,0.000000,4.000000,4.000000,2.000000,4.000000,4.000000,2.000000,2.000000,4.000000,4.000000,4.000000,4.000000,4.000000,4.000000,4.000000,50.000000
1600453980.647852,44.000000,0.000000,4429.743652,5148.205078,4635.897461,4699.487305,4493.846191,5036.922852,4414.871582,4313.846191,4665.128418,4515.897461,4631.794922,4560.000000,4517.436035,4506.666504,0.000000,4.000000,,,,0.000000,4.000000,4.000000,2.000000,4.000000,4.000000,2.000000,2.000000,4.000000,4.000000,4.000000,4.000000,4.000000,4.000000,4.000000,50.000000
1600453980.655574,45.000000,0.000000,4457.948730,5167.179688,4647.692383,4697.948730,4495.384766,5063.589844,4426.153809,4333.333496,4699.487305,4520.512695,4637.436035,4571.282227,4528.205078,4530.256348,0.000000,4.000000,,,,0.000000,4.000000,4.000000,2.000000,4.000000,4.000000,2.000000,2.000000,4.000000,4.000000,4.000000,4.000000,4.000000,4.000000,4.000000,50.000000
1600453980.663396,46.000000,0.000000,4483.077148,5185.128418,4657.948730,4695.384766,4512.820313,5084.615234,4442.563965,4355.384766,4711.282227,4531.282227,4641.538574,4577.948730,4539.487305,4552.820313,0.000000,4.000000,,,,0.000000,4.000000,4.000000,2.000000,4.000000,4.000000,2.000000,2.000000,4.000000,4.000000,4.000000,4.000000,4.000000,4.000000,4.000000,50.000000
1600453980.671117,47.000000,0.000000,4485.128418,5182.051270,4655.384766,4694.358887,4505.641113,5047.179688,4424.102539,4327.692383,4674.358887,4509.743652,4640.512695,4574.871582,4542.563965,4561.025879,0.000000,4.000000,,,,0.000000,4.000000,4.000000,2.000000,4.000000,4.000000,2.000000,2.000000,4.000000,4.000000,4.000000,4.000000,4.000000,4.000000,4.000000,50.000000
1600453980.678939,48.000000,0.000000,4491.282227,5184.615234,4657.948730,4702.563965,4489.230957,5039.487305,4415.897461,4320.512695,4696.922852,4505.128418,4645.128418,4580.512695,4556.410156,4566.666504,0.000000,4.000000,,,,0.000000,4.000000,4.000000,2.000000,4.000000,4.000000,2.000000,2.000000,4.000000,4.000000,4.000000,4.000000,4.000000,4.000000,4.000000,50.000000
1600453980.686660,49.000000,0.000000,4506.666504,5192.307617,4669.743652,4710.769043,4502.563965,5085.128418,4442.563965,4353.333496,4753.846191,4548.717773,4663.589844,4591.794922,4586.666504,4581.025879,0.000000,4.000000,,,,0.000000,4.000000,4.000000,2.000000,4.000000,4.000000,2.000000,2.000000,4.000000,4.000000,4.000000,4.000000,4.000000,4.000000,4.000000,50.000000
1600453980.694482,50.000000,0.000000,4490.256348,5170.769043,4660.000000,4698.974121,4512.307617,5085.128418,4443.077148,4344.102539,4729.230957,4544.102539,4662.563965,4578.974121,4589.230957,4577.436035,0.000000,4.000000,,,,0.000000,4.000000,4.000000,2.000000,4.000000,4.000000,2.000000,2.000000,4.000000,4.000000,4.000000,4.000000,4.000000,4.000000,4.000000,50.000000
1600453980.702203,51.000000,0.000000,4467.692383,5150.256348,4648.717773,4689.743652,4502.563965,5045.128418,4420.512695,4315.897461,4679.487305,4515.384766,4652.307617,4567.179688,4574.358887,4567.692383,0.000000,4.000000,,,,0.000000,4.000000,4.000000,2.000000,4.000000,4.000000,2.000000,2.000000,4.000000,4.000000,4.000000,4.000000,4.000000,4.000000,4.000000,50.000000
1600453980.710024,52.000000,0.000000,4466.153809,5155.897461,4657.436035,4700.000000,4500.000000,5039.487305,4417.948730,4327.692383,4685.641113,4536.922852,4652.307617,4571.282227,4570.256348,4567.179688,0.000000,4.000000,,,,0.000000,4.000000,4.000000,2.000000,4.000000,4.000000,2.000000,2.000000,4.000000,4.000000,4.000000,4.000000,4.000000,4.000000,4.000000,50.000000
1600453980.717746,53.000000,0.000000,4465.641113,5165.128418,4664.615234,4709.230957,4518.461426,5071.282227,4434.871582,4352.820313,4715.384766,4552.307617,4651.794922,4571.794922,4570.256348,4563.077148,0.000000,4.000000,,,,0.000000,4.000000,4.000000,2.000000,4.000000,4.000000,2.000000,2.000000,4.000000,4.000000,4.000000,4.000000,4.000000,4.000000,4.000000,50.000000
1600453980.725567,54.000000,0.000000,4452.820313,5152.307617,4657.948730,4702.051270,4523.077148,5084.615234,4442.051270,4356.410156,4724.615234,4521.025879,4646.153809,4564.615234,4562.051270,4552.820313,0.000000,4.000000,,,,0.000000,4.000000,4.000000,2.000000,4.000000,4.000000,2.000000,2.000000,4.000000,4.000000,4.000000,4.000000,4.000000,4.000000,4.000000,50.000000
1600453980.733289,55.000000,0.000000,4450.256348,5146.153809,4664.102539,4705.641113,4516.410156,5081.538574,4454.358887,4358.974121,4733.846191,4523.589844,4652.307617,4566.666504,4559.487305,4553.333496,0.000000,4.000000,,,,0.000000,4.000000,4.000000,2.000000,4.000000,4.000000,2.000000,2.000000,4.000000,4.000000,4.000000,4.000000,4.000000,4.000000,4.000000,50.000000
1600453980.741110,56.000000,0.000000,4459.487305,5160.512695,4679.487305,4723.589844,4522.051270,5077.436035,4469.230957,4366.153809,4724.615234,4576.922852,4667.179688,4579.487305,4574.358887,4560.000000,0.000000,4.000000,,,,0.000000,4.000000,4.000000,2.000000,4.000000,4.000000,2.000000,2.000000,4.000000,4.000000,4.000000,4.000000,4.000000,4.000000,4.000000,50.000000
1600453980.748831,57.000000,0.000000,4464.102539,5169.743652,4683.589844,4732.820313,4544.615234,5076.410156,4474.358887,4372.820313,4713.846191,4601.538574,4677.948730,4590.256348,4591.282227,4565.641113,0.000000,4.000000,,,,0.000000,4.000000,4.000000,2.000000,4.000000,4.000000,2.000000,2.000000,4.000000,4.000000,4.000000,4.000000,4.000000,4.000000,4.000000,50.000000
