title:your record name, start timestamp:1600979697.411619, stop timestamp:1600979707.507618, headset type:EPOC, headset serial:78816572, headset firmware:1e00, subject name:alzaabi.su, channels:38, sampling rate:128, samples:1292      , version:2.0
Timestamp,EEG.Counter,EEG.Interpolated,EEG.AF3,EEG.F7,EEG.F3,EEG.FC5,EEG.T7,EEG.P7,EEG.O1,EEG.O2,EEG.P8,EEG.T8,EEG.FC6,EEG.F4,EEG.F8,EEG.AF4,EEG.RawCq,EEG.Battery,MarkerIndex,MarkerType,MarkerValueInt,EEG.MarkerHardware,CQ.AF3,CQ.F7,CQ.F3,CQ.FC5,CQ.T7,CQ.P7,CQ.O1,CQ.O2,CQ.P8,CQ.T8,CQ.FC6,CQ.F4,CQ.F8,CQ.AF4,CQ.Overall
1600979697.411619,7.000000,0.000000,4045.128174,4979.487305,4303.589844,4382.051270,4156.410156,4749.230957,4105.641113,4033.333252,4743.077148,4197.948730,4461.025879,4290.256348,4218.974121,4137.948730,388.000000,4.000000,,,,0.000000,4.000000,4.000000,4.000000,4.000000,4.000000,4.000000,4.000000,4.000000,4.000000,4.000000,2.000000,4.000000,4.000000,2.000000,66.666664
1600979697.419339,8.000000,0.000000,4040.000000,4965.641113,4300.000000,4378.461426,4147.179688,4729.743652,4098.461426,4020.512939,4752.307617,4187.179688,4460.000000,4280.512695,4212.307617,4133.846191,383.000000,4.000000,,,,0.000000,4.000000,4.000000,4.000000,4.000000,4.000000,4.000000,4.000000,4.000000,4.000000,4.000000,2.000000,4.000000,4.000000,2.000000,66.666664
1600979697.427160,9.000000,0.000000,4043.589844,4973.333496,4311.794922,4386.153809,4155.384766,4738.974121,4102.051270,4040.512939,4771.282227,4210.769043,4474.871582,4287.179688,4226.153809,4141.025879,396.000000,4.000000,,,,0.000000,4.000000,4.000000,4.000000,4.000000,4.000000,4.000000,4.000000,4.000000,4.000000,4.000000,2.000000,4.000000,4.000000,2.000000,66.666664
1600979697.434880,10.000000,0.000000,4035.384521,4971.282227,4313.333496,4373.846191,4138.974121,4748.205078,4096.922852,4041.025635,4754.358887,4203.077148,4466.666504,4292.307617,4224.102539,4134.358887,431.000000,4.000000,,,,0.000000,4.000000,4.000000,4.000000,4.000000,4.000000,4.000000,4.000000,4.000000,4.000000,4.000000,2.000000,4.000000,4.000000,2.000000,66.666664
1600979697.442800,11.000000,0.000000,4026.666748,4957.948730,4306.153809,4358.461426,4125.128418,4743.077148,4094.358887,4028.718018,4742.051270,4184.615234,4451.282227,4289.230957,4211.794922,4124.615234,176.000000,4.000000,,,,0.000000,4.000000,4.000000,4.000000,4.000000,4.000000,4.000000,4.000000,4.000000,4.000000,4.000000,2.000000,4.000000,4.000000,2.000000,66.666664
1600979697.450621,12.000000,0.000000,4029.230713,4948.717773,4306.666504,4362.563965,4143.077148,4745.641113,4104.615234,4035.384521,4764.615234,4197.436035,4458.461426,4288.205078,4208.717773,4129.230957,289.000000,4.000000,,,,0.000000,4.000000,4.000000,4.000000,4.000000,4.000000,4.000000,4.000000,4.000000,4.000000,4.000000,2.000000,4.000000,4.000000,2.000000,66.666664
1600979697.458541,13.000000,0.000000,4033.333252,4953.846191,4305.641113,4371.282227,4148.205078,4738.974121,4100.512695,4042.564209,4769.230957,4209.230957,4463.589844,4283.589844,4203.589844,4132.820313,339.000000,4.000000,,,,0.000000,4.000000,4.000000,4.000000,4.000000,4.000000,4.000000,4.000000,4.000000,4.000000,4.000000,2.000000,4.000000,4.000000,2.000000,66.666664
1600979697.466361,14.000000,0.000000,4039.487061,4980.000000,4300.000000,4381.025879,4135.897461,4726.666504,4091.281982,4033.846191,4738.974121,4184.102539,4448.717773,4275.897461,4188.717773,4125.641113,431.000000,4.000000,,,,0.000000,4.000000,4.000000,4.000000,4.000000,4.000000,4.000000,4.000000,4.000000,4.000000,4.000000,2.000000,4.000000,4.000000,2.000000,66.666664
1600979697.474282,15.000000,0.000000,4044.102539,5011.282227,4297.948730,4389.230957,4139.487305,4741.538574,4096.410156,4020.000000,4730.256348,4167.179688,4434.871582,4273.846191,4172.820313,4116.922852,176.000000,4.000000,,,,0.000000,4.000000,4.000000,4.000000,4.000000,4.000000,4.000000,4.000000,4.000000,4.000000,4.000000,2.000000,4.000000,4.000000,2.000000,66.666664
1600979697.482102,16.000000,0.000000,4034.358887,5025.641113,4294.871582,4387.692383,4143.077148,4744.615234,4089.230713,4007.179443,4742.563965,4170.769043,4421.025879,4264.615234,4138.461426,4108.717773,0.000000,4.000000,,,,0.000000,4.000000,4.000000,4.000000,4.000000,4.000000,4.000000,4.000000,4.000000,4.000000,4.000000,2.000000,4.000000,4.000000,2.000000,66.666664
1600979697.490022,17.000000,0.000000,4032.307617,5048.205078,4293.846191,4395.897461,4146.153809,4720.512695,4070.769287,4002.564209,4732.820313,4149.230957,4394.358887,4250.769043,4091.281982,4101.538574,0.000000,4.000000,,,,0.000000,4.000000,4.000000,4.000000,4.000000,4.000000,4.000000,4.000000,4.000000,4.000000,4.000000,2.000000,4.000000,4.000000,2.000000,66.666664
1600979697.497843,18.000000,0.000000,4047.692383,5089.230957,4301.538574,4414.358887,4163.589844,4722.051270,4071.281982,4002.564209,4705.128418,4124.615234,4377.436035,4250.769043,4063.589844,4100.512695,0.000000,4.000000,,,,0.000000,4.000000,4.000000,4.000000,4.000000,4.000000,4.000000,4.000000,4.000000,4.000000,4.000000,2.000000,4.000000,4.000000,2.000000,66.666664
1600979697.505763,19.000000,0.000000,4054.871826,5109.230957,4305.641113,4420.512695,4164.615234,4745.641113,4083.589844,3998.974365,4696.922852,4139.487305,4378.461426,4258.461426,4057.435791,4096.922852,0.000000,4.000000,,,,0.000000,4.000000,4.000000,4.000000,4.000000,4.000000,4.000000,4.000000,4.000000,4.000000,4.000000,2.000000,4.000000,4.000000,2.000000,66.666664
1600979697.513583,20.000000,0.000000,4038.974365,5089.230957,4292.307617,4406.666504,4142.051270,4738.974121,4078.461426,3988.718018,4701.025879,4151.282227,4372.307617,4251.794922,4039.487061,4088.718018,0.000000,4.000000,,,,0.000000,4.000000,4.000000,4.000000,4.000000,4.000000,4.000000,4.000000,4.000000,4.000000,4.000000,2.000000,4.000000,4.000000,2.000000,66.666664
1600979697.521503,21.000000,0.000000,4027.692383,5073.846191,4285.641113,4399.487305,4145.128418,4717.948730,4072.307617,3990.256348,4701.538574,4116.922852,4366.153809,4249.230957,4028.718018,4086.666748,0.000000,4.000000,,,,0.000000,4.000000,4.000000,4.000000,4.000000,4.000000,4.000000,4.000000,4.000000,4.000000,4.000000,2.000000,4.000000,4.000000,2.000000,66.666664
1600979697.529324,22.000000,0.000000,4027.692383,5080.512695,4295.384766,4402.563965,4156.410156,4718.974121,4077.948730,4003.076904,4710.769043,4098.974121,4373.333496,4263.077148,4042.564209,4090.256348,0.000000,4.000000,,,,0.000000,4.000000,4.000000,4.000000,4.000000,4.000000,4.000000,4.000000,4.000000,4.000000,4.000000,2.000000,4.000000,4.000000,2.000000,66.666664
1600979697.537044,23.000000,0.000000,4026.666748,5080.512695,4300.000000,4400.512695,4151.282227,4732.820313,4080.512939,4006.153809,4718.974121,4143.589844,4385.128418,4272.307617,4052.820557,4092.820557,0.000000,4.000000,,,,0.000000,4.000000,4.000000,4.000000,4.000000,4.000000,4.000000,4.000000,4.000000,4.000000,4.000000,2.000000,4.000000,4.000000,2.000000,66.666664
1600979697.544865,24.000000,0.000000,4028.718018,5069.230957,4298.974121,4397.436035,4141.538574,4740.000000,4081.025635,3996.923096,4711.794922,4165.641113,4390.769043,4268.717773,4051.794922,4098.974121,0.000000,4.000000,,,,0.000000,4.000000,4.000000,4.000000,4.000000,4.000000,4.000000,4.000000,4.000000,4.000000,4.000000,2.000000,4.000000,4.000000,2.000000,66.666664
1600979697.552585,25.000000,0.000000,4038.974365,5072.307617,4305.641113,4406.153809,4144.615234,4739.487305,4088.205078,4003.589844,4717.948730,4146.153809,4391.282227,4270.769043,4060.000000,4104.102539,0.000000,4.000000,,,,0.000000,4.000000,4.000000,4.000000,4.000000,4.000000,4.000000,4.000000,4.000000,4.000000,4.000000,2.000000,4.000000,4.000000,2.000000,66.666664
1600979697.560406,26.000000,0.000000,4043.589844,5078.974121,4309.230957,4411.282227,4155.897461,4732.820313,4086.666748,4018.461426,4725.641113,4140.512695,4388.205078,4278.461426,4066.666748,4098.974121,0.000000,4.000000,,,,0.000000,4.000000,4.000000,4.000000,4.000000,4.000000,4.000000,4.000000,4.000000,4.000000,4.000000,2.000000,4.000000,4.000000,2.000000,66.666664
1600979697.568126,27.000000,0.000000,4033.333252,5063.077148,4295.897461,4394.358887,4145.128418,4728.717773,4071.794922,4004.102539,4705.641113,4128.717773,4382.563965,4263.077148,4054.871826,4090.769287,0.000000,4.000000,,,,0.000000,4.000000,4.000000,4.000000,4.000000,4.000000,4.000000,4.000000,4.000000,4.000000,4.000000,2.000000,4.000000,4.000000,2.000000,66.666664
1600979697.575946,28.000000,0.000000,4032.307617,5055.897461,4286.153809,4388.717773,4128.205078,4726.666504,4071.794922,3993.846191,4700.000000,4112.820313,4386.666504,4241.025879,4051.794922,4092.820557,0.000000,4.000000,,,,0.000000,4.000000,4.000000,4.000000,4.000000,4.000000,4.000000,4.000000,4.000000,4.000000,4.000000,2.000000,4.000000,4.000000,2.000000,66.666664
1600979697.583667,29.000000,0.000000,4050.769287,5076.922852,4298.974121,4408.717773,4145.641113,4731.282227,4085.641113,4017.435791,4726.666504,4137.948730,4398.974121,4246.153809,4072.307617,4101.538574,0.000000,4.000000,,,,0.000000,4.000000,4.000000,4.000000,4.000000,4.000000,4.000000,4.000000,4.000000,4.000000,4.000000,2.000000,4.000000,4.000000,2.000000,66.666664
1600979697.591487,30.000000,0.000000,4053.333252,5079.487305,4305.641113,4410.769043,4161.025879,4739.487305,4087.179443,4021.538574,4725.641113,4149.743652,4398.974121,4249.743652,4074.358887,4101.538574,0.000000,4.000000,,,,0.000000,4.000000,4.000000,4.000000,4.000000,4.000000,4.000000,4.000000,4.000000,4.000000,4.000000,2.000000,4.000000,4.000000,2.000000,66.666664
1600979697.599208,31.000000,0.000000,4019.487061,5040.000000,4278.461426,4378.974121,4133.846191,4723.589844,4066.153809,3989.230713,4683.077148,4102.563965,4374.358887,4224.615234,4041.025635,4086.666748,0.000000,4.000000,,,,0.000000,4.000000,4.000000,4.000000,4.000000,4.000000,4.000000,4.000000,4.000000,4.000000,4.000000,2.000000,4.000000,4.000000,2.000000,66.666664
1600979697.607028,32.000000,0.000000,3998.974365,5022.563965,4264.615234,4362.563965,4115.897461,4705.641113,4056.410156,3985.128174,4671.282227,4086.153809,4361.025879,4213.333496,4028.205078,4081.025635,0.000000,4.000000,,,,0.000000,4.000000,4.000000,4.000000,4.000000,4.000000,4.000000,4.000000,4.000000,4.000000,4.000000,2.000000,4.000000,4.000000,2.000000,66.666664
1600979697.614749,33.000000,0.000000,4026.666748,5050.769043,4292.307617,4385.128418,4138.461426,4722.051270,4078.974365,4004.615479,4704.615234,4122.051270,4380.000000,4238.461426,4053.846191,4097.436035,0.000000,4.000000,,,,0.000000,4.000000,4.000000,4.000000,4.000000,4.000000,4.000000,4.000000,4.000000,4.000000,4.000000,2.000000,4.000000,4.000000,2.000000,66.666664
1600979697.622669,34.000000,0.000000,4052.820557,5071.282227,4314.871582,4406.666504,4164.102539,4745.641113,4103.589844,4014.358887,4728.205078,4137.436035,4402.051270,4261.025879,4078.461426,4105.641113,0.000000,4.000000,,,,0.000000,4.000000,4.000000,4.000000,4.000000,4.000000,4.000000,4.000000,4.000000,4.000000,4.000000,2.000000,4.000000,4.000000,2.000000,66.666664
1600979697.630489,35.000000,0.000000,4032.820557,5047.179688,4296.410156,4391.794922,4146.666504,4732.820313,4090.769287,4013.333252,4704.615234,4126.153809,4395.384766,4248.205078,4071.281982,4094.871826,0.000000,4.000000,,,,0.000000,4.000000,4.000000,4.000000,4.000000,4.000000,4.000000,4.000000,4.000000,4.000000,4.000000,2.000000,4.000000,4.000000,2.000000,66.666664
1600979697.638409,36.000000,0.000000,4009.230713,5020.512695,4277.436035,4373.846191,4118.974121,4719.487305,4070.256348,4003.076904,4681.025879,4130.769043,4377.436035,4231.794922,4057.948730,4088.205078,0.000000,4.000000,,,,0.000000,4.000000,4.000000,4.000000,4.000000,4.000000,4.000000,4.000000,4.000000,4.000000,4.000000,2.000000,4.000000,4.000000,2.000000,66.666664
1600979697.646230,37.000000,0.000000,4017.948730,5027.692383,4286.153809,4383.077148,4127.179688,4725.128418,4069.743652,3990.769287,4694.871582,4137.436035,4378.974121,4241.538574,4064.615479,4094.871826,0.000000,4.000000,,,,0.000000,4.000000,4.000000,4.000000,4.000000,4.000000,4.000000,4.000000,4.000000,4.000000,4.000000,2.000000,4.000000,4.000000,2.000000,66.666664
1600979697.654150,38.000000,0.000000,4037.435791,5039.487305,4293.846191,4393.846191,4138.974121,4726.666504,4078.461426,3993.846191,4702.563965,4124.102539,4390.769043,4250.769043,4076.923096,4095.897461,0.000000,4.000000,,,,0.000000,4.000000,4.000000,4.000000,4.000000,4.000000,4.000000,4.000000,4.000000,4.000000,4.000000,2.000000,4.000000,4.000000,2.000000,66.666664
1600979697.661970,39.000000,0.000000,4035.384521,5027.692383,4281.025879,4382.051270,4125.641113,4721.538574,4083.589844,4002.564209,4687.179688,4116.922852,4387.692383,4241.025879,4069.743652,4087.179443,0.000000,4.000000,,,,0.000000,4.000000,4.000000,4.000000,4.000000,4.000000,4.000000,4.000000,4.000000,4.000000,4.000000,2.000000,4.000000,4.000000,2.000000,66.666664
1600979697.669891,40.000000,0.000000,4031.281982,5027.179688,4281.538574,4380.000000,4131.794922,4727.179688,4081.538574,4011.281982,4697.948730,4129.230957,4384.102539,4241.538574,4069.743652,4094.358887,0.000000,4.000000,,,,0.000000,4.000000,4.000000,4.000000,4.000000,4.000000,4.000000,4.000000,4.000000,4.000000,4.000000,2.000000,4.000000,4.000000,2.000000,66.666664
1600979697.677711,41.000000,0.000000,4042.564209,5037.948730,4294.358887,4393.846191,4147.692383,4732.820313,4072.820557,4017.435791,4714.358887,4127.179688,4392.307617,4252.820313,4084.102539,4108.717773,0.000000,4.000000,,,,0.000000,4.000000,4.000000,4.000000,4.000000,4.000000,4.000000,4.000000,4.000000,4.000000,4.000000,2.000000,4.000000,4.000000,2.000000,66.666664
1600979697.685631,42.000000,0.000000,4039.487061,5019.487305,4282.051270,4384.615234,4121.538574,4722.563965,4063.076904,4002.564209,4677.436035,4113.333496,4385.641113,4239.487305,4070.769287,4099.487305,0.000000,4.000000,,,,0.000000,4.000000,4.000000,4.000000,4.000000,4.000000,4.000000,4.000000,4.000000,4.000000,4.000000,2.000000,4.000000,4.000000,2.000000,66.666664
1600979697.693452,43.000000,0.000000,4018.461426,5002.051270,4267.179688,4369.743652,4101.025879,4711.282227,4061.538574,3983.589844,4646.153809,4112.820313,4367.692383,4226.153809,4050.256348,4081.538574,0.000000,4.000000,,,,0.000000,4.000000,4.000000,4.000000,4.000000,4.000000,4.000000,4.000000,4.000000,4.000000,4.000000,2.000000,4.000000,4.000000,2.000000,66.666664
1600979697.701372,44.000000,0.000000,4023.076904,5023.077148,4283.077148,4381.025879,4128.717773,4718.974121,4066.666748,3993.846191,4677.948730,4127.692383,4374.358887,4241.538574,4067.692383,4091.794922,0.000000,4.000000,,,,0.000000,4.000000,4.000000,4.000000,4.000000,4.000000,4.000000,4.000000,4.000000,4.000000,4.000000,2.000000,4.000000,4.000000,2.000000,66.666664
1600979697.709192,45.000000,0.000000,4047.692383,5041.538574,4301.025879,4397.436035,4152.820313,4729.743652,4076.410156,4019.487061,4704.102539,4133.846191,4393.333496,4258.974121,4091.794922,4111.282227,0.000000,4.000000,,,,0.000000,4.000000,4.000000,4.000000,4.000000,4.000000,4.000000,4.000000,4.000000,4.000000,4.000000,2.000000,4.000000,4.000000,2.000000,66.666664
1600979697.716913,46.000000,0.000000,4041.025635,5026.153809,4294.871582,4391.282227,4136.922852,4724.102539,4080.000000,4017.435791,4680.000000,4116.922852,4390.769043,4253.333496,4081.025635,4099.487305,0.000000,4.000000,,,,0.000000,4.000000,4.000000,4.000000,4.000000,4.000000,4.000000,4.000000,4.000000,4.000000,4.000000,2.000000,4.000000,4.000000,2.000000,66.666664
1600979697.724733,47.000000,0.000000,4025.641113,5011.794922,4283.077148,4380.000000,4120.512695,4715.384766,4074.358887,3994.358887,4654.358887,4107.692383,4378.461426,4243.077148,4068.718018,4084.102539,0.000000,4.000000,,,,0.000000,4.000000,4.000000,4.000000,4.000000,4.000000,4.000000,4.000000,4.000000,4.000000,4.000000,2.000000,4.000000,4.000000,2.000000,66.666664
1600979697.732454,48.000000,0.000000,4033.846191,5012.820313,4279.487305,4375.897461,4128.205078,4719.487305,4066.666748,3986.666748,4655.384766,4115.897461,4377.436035,4244.102539,4074.358887,4095.384521,0.000000,4.000000,,,,0.000000,4.000000,4.000000,4.000000,4.000000,4.000000,4.000000,4.000000,4.000000,4.000000,4.000000,2.000000,4.000000,4.000000,2.000000,66.666664
1600979697.740274,49.000000,0.000000,4040.000000,5011.794922,4277.436035,4375.384766,4141.025879,4727.692383,4068.718018,3999.487061,4671.282227,4118.974121,4384.615234,4247.179688,4077.435791,4103.077148,0.000000,4.000000,,,,0.000000,4.000000,4.000000,4.000000,4.000000,4.000000,4.000000,4.000000,4.000000,4.000000,4.000000,2.000000,4.000000,4.000000,2.000000,66.666664
1600979697.747994,50.000000,0.000000,4031.794922,5007.179688,4276.922852,4380.512695,4150.769043,4721.538574,4073.846191,4002.051270,4667.692383,4118.974121,4393.333496,4252.307617,4077.948730,4093.846191,0.000000,4.000000,,,,0.000000,4.000000,4.000000,4.000000,4.000000,4.000000,4.000000,4.000000,4.000000,4.000000,4.000000,2.000000,4.000000,4.000000,2.000000,66.666664
1600979697.755815,51.000000,0.000000,4035.897461,5006.666504,4283.077148,4383.077148,4143.077148,4710.256348,4069.743652,3993.333252,4649.230957,4131.282227,4402.563965,4261.025879,4086.666748,4096.410156,0.000000,4.000000,,,,0.000000,4.000000,4.000000,4.000000,4.000000,4.000000,4.000000,4.000000,4.000000,4.000000,4.000000,2.000000,4.000000,4.000000,2.000000,66.666664
1600979697.763535,52.000000,0.000000,4045.128174,5000.512695,4283.589844,4373.846191,4111.794922,4707.179688,4059.487061,3990.256348,4663.589844,4144.102539,4406.153809,4261.538574,4093.333252,4106.153809,0.000000,4.000000,,,,0.000000,4.000000,4.000000,4.000000,4.000000,4.000000,4.000000,4.000000,4.000000,4.000000,4.000000,2.000000,4.000000,4.000000,2.000000,66.666664
1600979697.771356,53.000000,0.000000,4035.897461,4992.307617,4278.974121,4369.743652,4106.666504,4711.282227,4056.410156,3991.281982,4677.948730,4130.256348,4398.461426,4252.307617,4087.179443,4102.563965,0.000000,4.000000,,,,0.000000,4.000000,4.000000,4.000000,4.000000,4.000000,4.000000,4.000000,4.000000,4.000000,4.000000,2.000000,4.000000,4.000000,2.000000,66.666664
1600979697.779076,54.000000,0.000000,4025.641113,4990.769043,4281.025879,4370.769043,4133.846191,4712.820313,4060.512939,3988.205078,4638.461426,4096.410156,4383.589844,4248.717773,4077.435791,4092.820557,0.000000,4.000000,,,,0.000000,4.000000,4.000000,4.000000,4.000000,4.000000,4.000000,4.000000,4.000000,4.000000,4.000000,2.000000,4.000000,4.000000,2.000000,66.666664
1600979697.786996,55.000000,0.000000,4036.410156,4993.333496,4288.205078,4369.230957,4145.128418,4717.436035,4068.205078,3992.307617,4612.820313,4096.410156,4382.563965,4257.948730,4080.000000,4091.281982,0.000000,4.000000,,,,0.000000,4.000000,4.000000,4.000000,4.000000,4.000000,4.000000,4.000000,4.000000,4.000000,4.000000,2.000000,4.000000,4.000000,2.000000,66.666664
1600979697.794817,56.000000,0.000000,4047.692383,4992.820313,4290.256348,4371.282227,4135.897461,4722.051270,4072.307617,4003.076904,4638.974121,4126.666504,4393.846191,4259.487305,4086.153809,4098.461426,0.000000,4.000000,,,,0.000000,4.000000,4.000000,4.000000,4.000000,4.000000,4.000000,4.000000,4.000000,4.000000,4.000000,2.000000,4.000000,4.000000,2.000000,66.666664
1600979697.802737,57.000000,0.000000,4047.179443,4998.461426,4291.794922,4382.051270,4139.487305,4720.512695,4072.307617,4009.743652,4656.922852,4130.769043,4395.384766,4256.922852,4087.692383,4103.077148,0.000000,4.000000,,,,0.000000,4.000000,4.000000,4.000000,4.000000,4.000000,4.000000,4.000000,4.000000,4.000000,4.000000,2.000000,4.000000,4.000000,2.000000,66.666664
1600979697.810557,58.000000,0.000000,4043.076904,4993.333496,4289.230957,4376.410156,4141.538574,4719.487305,4073.333252,4008.205078,4653.333496,4121.538574,4385.641113,4263.077148,4083.076904,4095.384521,0.000000,4.000000,,,,0.000000,4.000000,4.000000,4.000000,4.000000,4.000000,4.000000,4.000000,4.000000,4.000000,4.000000,2.000000,4.000000,4.000000,2.000000,66.666664
1600979697.818478,59.000000,0.000000,4036.923096,4973.333496,4281.025879,4354.358887,4128.205078,4715.897461,4075.384521,4001.025635,4645.641113,4123.589844,4381.538574,4257.948730,4076.410156,4087.692383,0.000000,4.000000,,,,0.000000,4.000000,4.000000,4.000000,4.000000,4.000000,4.000000,4.000000,4.000000,4.000000,4.000000,2.000000,4.000000,4.000000,2.000000,66.666664
1600979697.826298,60.000000,0.000000,4033.333252,4973.333496,4278.974121,4352.307617,4120.512695,4710.769043,4069.743652,3994.871826,4632.307617,4114.358887,4385.128418,4243.077148,4076.410156,4092.820557,0.000000,4.000000,,,,0.000000,4.000000,4.000000,4.000000,4.000000,4.000000,4.000000,4.000000,4.000000,4.000000,4.000000,2.000000,4.000000,4.000000,2.000000,66.666664
1600979697.834218,61.000000,0.000000,4024.615479,4978.461426,4273.333496,4358.974121,4123.589844,4704.615234,4058.974365,3985.128174,4618.461426,4099.487305,4378.461426,4234.871582,4068.718018,4093.333252,0.000000,4.000000,,,,0.000000,4.000000,4.000000,4.000000,4.000000,4.000000,4.000000,4.000000,4.000000,4.000000,4.000000,2.000000,4.000000,4.000000,2.000000,66.666664
1600979697.842039,62.000000,0.000000,4014.871826,4966.666504,4262.563965,4349.743652,4115.897461,4699.487305,4055.384521,3977.948730,4611.282227,4099.487305,4367.692383,4232.307617,4056.923096,4081.025635,0.000000,4.000000,,,,0.000000,4.000000,4.000000,4.000000,4.000000,4.000000,4.000000,4.000000,4.000000,4.000000,4.000000,2.000000,4.000000,4.000000,2.000000,66.666664
1600979697.849959,63.000000,0.000000,4030.256348,4973.846191,4273.333496,4354.871582,4111.794922,4706.666504,4066.666748,3989.743652,4628.717773,4115.897461,4375.897461,4241.538574,4073.333252,4083.589844,0.000000,4.000000,,,,0.000000,4.000000,4.000000,4.000000,4.000000,4.000000,4.000000,4.000000,4.000000,4.000000,4.000000,2.000000,4.000000,4.000000,2.000000,66.666664
1600979697.857779,64.000000,0.000000,4053.846191,5000.512695,4292.307617,4377.436035,4136.922852,4722.563965,4077.435791,4008.718018,4646.666504,4137.436035,4391.282227,4260.512695,4099.487305,4097.948730,392.000000,4.000000,,,,0.000000,4.000000,4.000000,4.000000,4.000000,4.000000,4.000000,4.000000,4.000000,4.000000,4.000000,2.000000,4.000000,4.000000,2.000000,66.666664
1600979697.865700,65.000000,0.000000,4042.051270,4990.769043,4282.051270,4364.615234,4150.256348,4722.563965,4069.743652,4001.538574,4623.077148,4123.589844,4381.025879,4258.461426,4085.128174,4093.333252,430.000000,4.000000,,,,0.000000,4.000000,4.000000,4.000000,4.000000,4.000000,4.000000,4.000000,4.000000,4.000000,4.000000,2.000000,4.000000,4.000000,2.000000,66.666664
1600979697.873520,66.000000,0.000000,4029.230713,4974.358887,4273.846191,4349.230957,4141.025879,4720.000000,4071.794922,3993.846191,4612.307617,4106.666504,4372.820313,4248.717773,4073.846191,4087.692383,442.000000,4.000000,,,,0.000000,4.000000,4.000000,4.000000,4.000000,4.000000,4.000000,4.000000,4.000000,4.000000,4.000000,2.000000,4.000000,4.000000,2.000000,66.666664
1600979697.881440,67.000000,0.000000,4029.743652,4974.871582,4279.487305,4357.948730,4128.205078,4713.846191,4071.281982,3994.358887,4625.641113,4113.846191,4377.948730,4248.205078,4085.641113,4090.256348,439.000000,4.000000,,,,0.000000,4.000000,4.000000,4.000000,4.000000,4.000000,4.000000,4.000000,4.000000,4.000000,4.000000,2.000000,4.000000,4.000000,2.000000,66.666664
1600979697.889261,68.000000,0.000000,4022.564209,4961.538574,4270.256348,4355.384766,4117.948730,4705.128418,4056.923096,3986.153809,4613.846191,4110.256348,4374.871582,4242.563965,4079.487061,4083.589844,468.000000,4.000000,,,,0.000000,4.000000,4.000000,4.000000,4.000000,4.000000,4.000000,4.000000,4.000000,4.000000,4.000000,2.000000,4.000000,4.000000,2.000000,66.666664
1600979697.897181,69.000000,0.000000,4016.923096,4947.179688,4258.461426,4342.051270,4113.333496,4704.615234,4052.820557,3977.435791,4599.487305,4104.102539,4366.153809,4233.846191,4065.128174,4077.948730,434.000000,4.000000,,,,0.000000,4.000000,4.000000,4.000000,4.000000,4.000000,4.000000,4.000000,4.000000,4.000000,4.000000,2.000000,4.000000,4.000000,2.000000,66.666664
1600979697.905001,70.000000,0.000000,4027.692383,4957.436035,4268.205078,4345.641113,4121.025879,4704.102539,4058.461426,3981.538574,4614.358887,4119.487305,4371.282227,4243.077148,4075.897461,4086.153809,441.000000,4.000000,,,,0.000000,4.000000,4.000000,4.000000,4.000000,4.000000,4.000000,4.000000,4.000000,4.000000,4.000000,2.000000,4.000000,4.000000,2.000000,66.666664
1600979697.912722,71.000000,0.000000,4029.230713,4959.487305,4271.794922,4347.692383,4113.333496,4694.871582,4049.230713,3982.564209,4612.307617,4108.717773,4375.384766,4248.717773,4081.538574,4087.692383,392.000000,4.000000,,,,0.000000,4.000000,4.000000,4.000000,4.000000,4.000000,4.000000,4.000000,4.000000,4.000000,4.000000,2.000000,4.000000,4.000000,2.000000,66.666664
1600979697.920542,72.000000,0.000000,4017.435791,4943.589844,4256.922852,4337.948730,4101.025879,4695.897461,4045.128174,3973.846191,4583.589844,4081.025635,4365.128418,4234.358887,4065.128174,4074.871826,384.000000,4.000000,,,,0.000000,4.000000,4.000000,4.000000,4.000000,4.000000,4.000000,4.000000,4.000000,4.000000,4.000000,2.000000,4.000000,4.000000,2.000000,66.666664
1600979697.928263,73.000000,0.000000,4010.769287,4936.922852,4253.333496,4335.384766,4109.743652,4694.871582,4053.333252,3967.179443,4568.717773,4082.051270,4354.358887,4225.128418,4057.435791,4072.820557,397.000000,4.000000,,,,0.000000,4.000000,4.000000,4.000000,4.000000,4.000000,4.000000,4.000000,4.000000,4.000000,4.000000,2.000000,4.000000,4.000000,2.000000,66.666664
1600979697.936083,74.000000,0.000000,4014.871826,4940.000000,4265.128418,4338.974121,4110.256348,4689.743652,4050.256348,3971.794922,4578.974121,4092.307617,4359.487305,4233.846191,4067.179443,4082.051270,434.000000,4.000000,,,,0.000000,4.000000,4.000000,4.000000,4.000000,4.000000,4.000000,4.000000,4.000000,4.000000,4.000000,2.000000,4.000000,4.000000,2.000000,66.666664
1600979697.943803,75.000000,0.000000,4026.153809,4942.051270,4275.384766,4345.128418,4107.179688,4710.769043,4053.333252,3984.102539,4596.410156,4102.051270,4374.871582,4242.563965,4080.000000,4088.205078,176.000000,4.000000,,,,0.000000,4.000000,4.000000,4.000000,4.000000,4.000000,4.000000,4.000000,4.000000,4.000000,4.000000,2.000000,4.000000,4.000000,2.000000,66.666664
1600979697.951624,76.000000,0.000000,4033.333252,4945.641113,4277.948730,4347.692383,4123.589844,4727.179688,4069.230713,3991.281982,4595.384766,4113.846191,4377.948730,4243.077148,4084.615479,4086.666748,291.000000,4.000000,,,,0.000000,4.000000,4.000000,4.000000,4.000000,4.000000,4.000000,4.000000,4.000000,4.000000,4.000000,2.000000,4.000000,4.000000,2.000000,66.666664
1600979697.959344,77.000000,0.000000,4031.281982,4944.102539,4271.794922,4343.589844,4135.897461,4712.820313,4072.307617,3986.153809,4585.641113,4111.282227,4370.256348,4243.077148,4078.461426,4083.589844,339.000000,4.000000,,,,0.000000,4.000000,4.000000,4.000000,4.000000,4.000000,4.000000,4.000000,4.000000,4.000000,4.000000,2.000000,4.000000,4.000000,2.000000,66.666664
1600979697.967165,78.000000,0.000000,4021.538574,4933.333496,4264.102539,4334.871582,4130.256348,4703.589844,4060.512939,3976.410156,4586.153809,4099.487305,4367.692383,4241.025879,4071.794922,4078.974365,434.000000,4.000000,,,,0.000000,4.000000,4.000000,4.000000,4.000000,4.000000,4.000000,4.000000,4.000000,4.000000,4.000000,2.000000,4.000000,4.000000,2.000000,66.666664
1600979697.974885,79.000000,0.000000,4022.564209,4933.846191,4270.769043,4334.358887,4120.000000,4713.333496,4058.461426,3984.102539,4594.358887,4109.230957,4377.436035,4246.153809,4085.128174,4083.076904,176.000000,4.000000,,,,0.000000,4.000000,4.000000,4.000000,4.000000,4.000000,4.000000,4.000000,4.000000,4.000000,4.000000,2.000000,4.000000,4.000000,2.000000,66.666664
1600979697.982705,80.000000,0.000000,4035.384521,4945.641113,4284.615234,4346.153809,4110.256348,4715.384766,4062.564209,4001.538574,4601.025879,4128.717773,4387.692383,4258.461426,4104.615234,4095.384521,291.000000,4.000000,,,,0.000000,4.000000,4.000000,4.000000,4.000000,4.000000,4.000000,4.000000,4.000000,4.000000,4.000000,2.000000,4.000000,4.000000,2.000000,66.666664
1600979697.990426,81.000000,0.000000,4032.820557,4937.436035,4277.948730,4341.538574,4113.846191,4701.538574,4049.230713,3987.179443,4595.384766,4124.615234,4380.000000,4255.384766,4094.871826,4091.281982,339.000000,4.000000,,,,0.000000,4.000000,4.000000,4.000000,4.000000,4.000000,4.000000,4.000000,4.000000,4.000000,4.000000,2.000000,4.000000,4.000000,2.000000,66.666664
1600979697.998346,82.000000,0.000000,4010.256348,4904.615234,4256.922852,4314.358887,4114.358887,4687.179688,4033.333252,3957.948730,4562.051270,4091.794922,4355.897461,4236.922852,4060.512939,4072.307617,434.000000,4.000000,,,,0.000000,4.000000,4.000000,4.000000,4.000000,4.000000,4.000000,4.000000,4.000000,4.000000,4.000000,2.000000,4.000000,4.000000,2.000000,66.666664
1600979698.006167,83.000000,0.000000,4008.718018,4897.436035,4257.948730,4310.256348,4106.153809,4695.384766,4047.179443,3965.641113,4545.641113,4082.051270,4357.948730,4237.436035,4060.000000,4072.820557,176.000000,4.000000,,,,0.000000,4.000000,4.000000,4.000000,4.000000,4.000000,4.000000,4.000000,4.000000,4.000000,4.000000,2.000000,4.000000,4.000000,2.000000,66.666664
1600979698.014087,84.000000,0.000000,4031.794922,4922.051270,4276.410156,4332.307617,4108.205078,4709.230957,4061.538574,3989.743652,4578.461426,4116.410156,4389.230957,4255.384766,4097.948730,4091.281982,291.000000,4.000000,,,,0.000000,4.000000,4.000000,4.000000,4.000000,4.000000,4.000000,4.000000,4.000000,4.000000,4.000000,2.000000,4.000000,4.000000,2.000000,66.666664
1600979698.021907,85.000000,0.000000,4036.923096,4926.666504,4277.436035,4333.846191,4107.692383,4703.077148,4048.205078,3987.692383,4598.461426,4139.487305,4391.282227,4256.410156,4108.205078,4093.846191,339.000000,4.000000,,,,0.000000,4.000000,4.000000,4.000000,4.000000,4.000000,4.000000,4.000000,4.000000,4.000000,4.000000,2.000000,4.000000,4.000000,2.000000,66.666664
1600979698.029827,86.000000,0.000000,4014.871826,4902.051270,4260.512695,4313.846191,4090.769287,4688.717773,4033.333252,3969.230713,4563.077148,4114.871582,4363.589844,4237.948730,4074.871826,4078.461426,434.000000,4.000000,,,,0.000000,4.000000,4.000000,4.000000,4.000000,4.000000,4.000000,4.000000,4.000000,4.000000,4.000000,2.000000,4.000000,4.000000,2.000000,66.666664
1600979698.037648,87.000000,0.000000,4008.205078,4899.487305,4264.102539,4318.461426,4100.512695,4691.794922,4048.205078,3973.333252,4549.230957,4104.102539,4367.179688,4237.436035,4069.230713,4075.384521,176.000000,4.000000,,,,0.000000,4.000000,4.000000,4.000000,4.000000,4.000000,4.000000,4.000000,4.000000,4.000000,4.000000,2.000000,4.000000,4.000000,2.000000,66.666664
1600979698.045568,88.000000,0.000000,4022.564209,4914.358887,4280.000000,4331.794922,4125.641113,4701.538574,4060.000000,3987.692383,4568.717773,4117.948730,4385.128418,4251.794922,4094.358887,4085.128174,291.000000,4.000000,,,,0.000000,4.000000,4.000000,4.000000,4.000000,4.000000,4.000000,4.000000,4.000000,4.000000,4.000000,2.000000,4.000000,4.000000,2.000000,66.666664
1600979698.053388,89.000000,0.000000,4026.153809,4908.717773,4275.384766,4322.051270,4120.000000,4704.615234,4050.769287,3986.153809,4562.563965,4107.692383,4377.436035,4249.230957,4097.948730,4086.666748,339.000000,4.000000,,,,0.000000,4.000000,4.000000,4.000000,4.000000,4.000000,4.000000,4.000000,4.000000,4.000000,4.000000,2.000000,4.000000,4.000000,2.000000,66.666664
1600979698.061309,90.000000,0.000000,4022.051270,4899.487305,4266.666504,4317.436035,4100.000000,4703.077148,4047.692383,3985.128174,4555.384766,4101.025879,4373.846191,4242.563965,4091.794922,4087.692383,434.000000,4.000000,,,,0.000000,4.000000,4.000000,4.000000,4.000000,4.000000,4.000000,4.000000,4.000000,4.000000,4.000000,2.000000,4.000000,4.000000,2.000000,66.666664
1600979698.069129,91.000000,0.000000,4025.128174,4903.589844,4273.846191,4327.179688,4097.436035,4699.487305,4052.820557,3990.769287,4570.769043,4123.077148,4386.153809,4248.717773,4097.948730,4088.205078,176.000000,4.000000,,,,0.000000,4.000000,4.000000,4.000000,4.000000,4.000000,4.000000,4.000000,4.000000,4.000000,4.000000,2.000000,4.000000,4.000000,2.000000,66.666664
1600979698.076850,92.000000,0.000000,4018.461426,4894.358887,4269.230957,4319.487305,4103.589844,4696.410156,4043.076904,3977.435791,4557.948730,4127.179688,4378.461426,4244.615234,4089.743652,4079.487061,291.000000,4.000000,,,,0.000000,4.000000,4.000000,4.000000,4.000000,4.000000,4.000000,4.000000,4.000000,4.000000,4.000000,2.000000,4.000000,4.000000,2.000000,66.666664
1600979698.084670,93.000000,0.000000,4007.179443,4884.102539,4262.051270,4309.230957,4113.333496,4696.410156,4037.948730,3965.641113,4536.922852,4116.922852,4369.230957,4237.948730,4084.615479,4080.512939,339.000000,4.000000,,,,0.000000,4.000000,4.000000,4.000000,4.000000,4.000000,4.000000,4.000000,4.000000,4.000000,4.000000,2.000000,4.000000,4.000000,2.000000,66.666664
1600979698.092390,94.000000,0.000000,4024.615479,4902.563965,4281.025879,4325.641113,4125.641113,4709.743652,4060.000000,3990.256348,4560.000000,4132.820313,4389.230957,4254.871582,4111.282227,4095.897461,434.000000,4.000000,,,,0.000000,4.000000,4.000000,4.000000,4.000000,4.000000,4.000000,4.000000,4.000000,4.000000,4.000000,2.000000,4.000000,4.000000,2.000000,66.666664
1600979698.100211,95.000000,0.000000,4039.487061,4908.205078,4288.205078,4332.820313,4120.512695,4717.436035,4064.102539,4003.076904,4568.205078,4140.000000,4397.948730,4262.563965,4120.000000,4095.897461,176.000000,4.000000,,,,0.000000,4.000000,4.000000,4.000000,4.000000,4.000000,4.000000,4.000000,4.000000,4.000000,4.000000,2.000000,4.000000,4.000000,2.000000,66.666664
1600979698.107931,96.000000,0.000000,4024.615479,4886.153809,4271.282227,4316.922852,4109.230957,4707.179688,4050.256348,3988.718018,4542.563965,4120.512695,4381.025879,4246.153809,4098.974121,4084.102539,291.000000,4.000000,,,,0.000000,4.000000,4.000000,4.000000,4.000000,4.000000,4.000000,4.000000,4.000000,4.000000,4.000000,2.000000,4.000000,4.000000,2.000000,66.666664
1600979698.115752,97.000000,0.000000,4016.923096,4882.563965,4274.871582,4317.948730,4112.820313,4701.025879,4055.897461,3986.153809,4541.538574,4119.487305,4374.871582,4241.025879,4095.897461,4084.615479,339.000000,4.000000,,,,0.000000,4.000000,4.000000,4.000000,4.000000,4.000000,4.000000,4.000000,4.000000,4.000000,4.000000,2.000000,4.000000,4.000000,2.000000,66.666664
1600979698.123472,98.000000,0.000000,4032.820557,4901.538574,4293.333496,4336.922852,4115.897461,4705.128418,4058.974365,3994.358887,4561.538574,4144.102539,4387.692383,4255.384766,4115.384766,4093.333252,434.000000,4.000000,,,,0.000000,4.000000,4.000000,4.000000,4.000000,4.000000,4.000000,4.000000,4.000000,4.000000,4.000000,2.000000,4.000000,4.000000,2.000000,66.666664
1600979698.131292,99.000000,0.000000,4031.281982,4898.461426,4286.666504,4335.897461,4103.589844,4706.666504,4043.589844,3987.692383,4548.205078,4137.436035,4388.717773,4257.948730,4111.794922,4092.820557,176.000000,4.000000,,,,0.000000,4.000000,4.000000,4.000000,4.000000,4.000000,4.000000,4.000000,4.000000,4.000000,4.000000,2.000000,4.000000,4.000000,2.000000,66.666664
1600979698.139013,100.000000,0.000000,4009.230713,4877.948730,4272.307617,4318.974121,4100.000000,4704.615234,4043.589844,3977.435791,4520.512695,4100.512695,4373.333496,4244.102539,4091.794922,4081.025635,291.000000,4.000000,,,,0.000000,4.000000,4.000000,4.000000,4.000000,4.000000,4.000000,4.000000,4.000000,4.000000,4.000000,2.000000,4.000000,4.000000,2.000000,66.666664
1600979698.146833,101.000000,0.000000,4003.589844,4871.282227,4278.461426,4314.358887,4112.820313,4697.948730,4050.769287,3976.923096,4522.563965,4100.512695,4366.153809,4240.512695,4090.256348,4075.384521,339.000000,4.000000,,,,0.000000,4.000000,4.000000,4.000000,4.000000,4.000000,4.000000,4.000000,4.000000,4.000000,4.000000,2.000000,4.000000,4.000000,2.000000,66.666664
1600979698.154554,102.000000,0.000000,4026.153809,4885.128418,4295.897461,4332.307617,4126.666504,4700.512695,4049.743652,3987.179443,4541.025879,4136.410156,4377.948730,4254.358887,4106.153809,4084.102539,434.000000,4.000000,,,,0.000000,4.000000,4.000000,4.000000,4.000000,4.000000,4.000000,4.000000,4.000000,4.000000,4.000000,2.000000,4.000000,4.000000,2.000000,66.666664
1600979698.162374,103.000000,0.000000,4037.948730,4888.205078,4296.922852,4341.538574,4123.077148,4705.641113,4049.743652,3990.256348,4534.358887,4142.051270,4386.666504,4260.512695,4112.307617,4091.281982,176.000000,4.000000,,,,0.000000,4.000000,4.000000,4.000000,4.000000,4.000000,4.000000,4.000000,4.000000,4.000000,4.000000,2.000000,4.000000,4.000000,2.000000,66.666664
1600979698.170095,104.000000,0.000000,4027.692383,4876.410156,4285.128418,4332.820313,4103.077148,4702.051270,4050.256348,3981.025635,4516.410156,4118.461426,4383.589844,4251.794922,4106.666504,4088.718018,291.000000,4.000000,,,,0.000000,4.000000,4.000000,4.000000,4.000000,4.000000,4.000000,4.000000,4.000000,4.000000,4.000000,2.000000,4.000000,4.000000,2.000000,66.666664
1600979698.178015,105.000000,0.000000,4028.718018,4876.922852,4287.692383,4328.717773,4105.128418,4702.563965,4051.281982,3982.051270,4519.487305,4108.717773,4385.128418,4251.794922,4108.205078,4090.769287,339.000000,4.000000,,,,0.000000,4.000000,4.000000,4.000000,4.000000,4.000000,4.000000,4.000000,4.000000,4.000000,4.000000,2.000000,4.000000,4.000000,2.000000,66.666664
1600979698.185835,106.000000,0.000000,4036.923096,4882.563965,4296.410156,4333.846191,4123.077148,4707.179688,4055.384521,3987.692383,4522.051270,4116.922852,4384.615234,4257.948730,4109.743652,4093.333252,434.000000,4.000000,,,,0.000000,4.000000,4.000000,4.000000,4.000000,4.000000,4.000000,4.000000,4.000000,4.000000,4.000000,2.000000,4.000000,4.000000,2.000000,66.666664
1600979698.193755,107.000000,0.000000,4026.153809,4871.794922,4289.743652,4329.230957,4114.358887,4694.871582,4048.205078,3981.538574,4511.794922,4124.615234,4374.871582,4252.820313,4100.512695,4085.641113,176.000000,4.000000,,,,0.000000,4.000000,4.000000,4.000000,4.000000,4.000000,4.000000,4.000000,4.000000,4.000000,4.000000,2.000000,4.000000,4.000000,2.000000,66.666664
1600979698.201576,108.000000,0.000000,4013.846191,4863.589844,4281.538574,4321.538574,4096.410156,4692.820313,4042.564209,3980.000000,4511.282227,4126.666504,4372.820313,4249.230957,4097.948730,4078.461426,291.000000,4.000000,,,,0.000000,4.000000,4.000000,4.000000,4.000000,4.000000,4.000000,4.000000,4.000000,4.000000,4.000000,2.000000,4.000000,4.000000,2.000000,66.666664
1600979698.209496,109.000000,0.000000,4018.974365,4874.871582,4288.717773,4329.230957,4111.794922,4715.897461,4056.923096,3987.692383,4520.000000,4129.743652,4382.563965,4254.358887,4108.205078,4083.589844,339.000000,4.000000,,,,0.000000,4.000000,4.000000,4.000000,4.000000,4.000000,4.000000,4.000000,4.000000,4.000000,4.000000,2.000000,4.000000,4.000000,2.000000,66.666664
1600979698.217316,110.000000,0.000000,4025.641113,4883.077148,4293.846191,4335.384766,4131.282227,4716.410156,4063.076904,3987.179443,4516.410156,4114.871582,4387.179688,4258.461426,4115.384766,4091.281982,434.000000,4.000000,,,,0.000000,4.000000,4.000000,4.000000,4.000000,4.000000,4.000000,4.000000,4.000000,4.000000,4.000000,2.000000,4.000000,4.000000,2.000000,66.666664
1600979698.225237,111.000000,0.000000,4024.102539,4872.820313,4284.102539,4327.179688,4112.820313,4693.333496,4047.179443,3980.512939,4505.128418,4098.974121,4381.025879,4253.333496,4111.282227,4087.692383,176.000000,4.000000,,,,0.000000,4.000000,4.000000,4.000000,4.000000,4.000000,4.000000,4.000000,4.000000,4.000000,4.000000,2.000000,4.000000,4.000000,2.000000,66.666664
1600979698.233057,112.000000,0.000000,4020.512939,4859.487305,4277.948730,4320.512695,4089.743652,4691.282227,4038.974365,3982.564209,4497.948730,4116.410156,4373.846191,4247.692383,4107.179688,4080.000000,291.000000,4.000000,,,,0.000000,4.000000,4.000000,4.000000,4.000000,4.000000,4.000000,4.000000,4.000000,4.000000,4.000000,2.000000,4.000000,4.000000,2.000000,66.666664
1600979698.240977,113.000000,0.000000,4022.051270,4859.487305,4281.538574,4329.230957,4098.461426,4711.794922,4050.256348,3987.692383,4500.000000,4138.974121,4376.922852,4250.769043,4111.794922,4081.538574,339.000000,4.000000,,,,0.000000,4.000000,4.000000,4.000000,4.000000,4.000000,4.000000,4.000000,4.000000,4.000000,4.000000,2.000000,4.000000,4.000000,2.000000,66.666664
1600979698.248798,114.000000,0.000000,4025.128174,4861.538574,4283.077148,4337.948730,4113.333496,4713.333496,4052.307617,3979.487061,4496.410156,4125.641113,4382.051270,4251.794922,4112.820313,4088.718018,434.000000,4.000000,,,,0.000000,4.000000,4.000000,4.000000,4.000000,4.000000,4.000000,4.000000,4.000000,4.000000,4.000000,2.000000,4.000000,4.000000,2.000000,66.666664
1600979698.256718,115.000000,0.000000,4021.538574,4859.487305,4278.461426,4334.358887,4110.256348,4694.358887,4038.461426,3964.102539,4480.512695,4103.589844,4380.512695,4243.589844,4108.717773,4088.205078,176.000000,4.000000,,,,0.000000,4.000000,4.000000,4.000000,4.000000,4.000000,4.000000,4.000000,4.000000,4.000000,4.000000,2.000000,4.000000,4.000000,2.000000,66.666664
1600979698.264538,116.000000,0.000000,4013.333252,4857.436035,4275.384766,4327.692383,4101.538574,4688.205078,4036.923096,3965.641113,4474.358887,4103.589844,4373.846191,4238.461426,4104.102539,4081.538574,291.000000,4.000000,,,,0.000000,4.000000,4.000000,4.000000,4.000000,4.000000,4.000000,4.000000,4.000000,4.000000,4.000000,2.000000,4.000000,4.000000,2.000000,66.666664
1600979698.272259,117.000000,0.000000,4016.410156,4857.948730,4282.563965,4330.769043,4103.589844,4700.512695,4057.435791,3986.666748,4485.641113,4121.025879,4371.794922,4247.692383,4103.589844,4078.461426,339.000000,4.000000,,,,0.000000,4.000000,4.000000,4.000000,4.000000,4.000000,4.000000,4.000000,4.000000,4.000000,4.000000,2.000000,4.000000,4.000000,2.000000,66.666664
1600979698.280079,118.000000,0.000000,4025.128174,4861.538574,4290.769043,4337.948730,4113.333496,4713.846191,4065.641113,3992.307617,4487.179688,4129.230957,4376.922852,4252.820313,4106.153809,4080.000000,434.000000,4.000000,,,,0.000000,4.000000,4.000000,4.000000,4.000000,4.000000,4.000000,4.000000,4.000000,4.000000,4.000000,2.000000,4.000000,4.000000,2.000000,66.666664
1600979698.287800,119.000000,0.000000,4026.666748,4861.538574,4286.153809,4338.461426,4119.487305,4717.436035,4055.897461,3979.487061,4479.487305,4114.871582,4385.641113,4244.102539,4111.794922,4083.076904,176.000000,4.000000,,,,0.000000,4.000000,4.000000,4.000000,4.000000,4.000000,4.000000,4.000000,4.000000,4.000000,4.000000,2.000000,4.000000,4.000000,2.000000,66.666664
1600979698.295620,120.000000,0.000000,4017.948730,4852.820313,4272.307617,4329.743652,4111.794922,4701.025879,4049.230713,3971.794922,4478.974121,4108.717773,4386.153809,4236.410156,4114.358887,4086.153809,291.000000,4.000000,,,,0.000000,4.000000,4.000000,4.000000,4.000000,4.000000,4.000000,4.000000,4.000000,4.000000,4.000000,2.000000,4.000000,4.000000,2.000000,66.666664
1600979698.303340,121.000000,0.000000,4019.487061,4854.871582,4276.410156,4329.230957,4110.256348,4692.307617,4050.769287,3985.128174,4486.666504,4148.205078,4387.179688,4250.256348,4122.051270,4091.794922,339.000000,4.000000,,,,0.000000,4.000000,4.000000,4.000000,4.000000,4.000000,4.000000,4.000000,4.000000,4.000000,4.000000,2.000000,4.000000,4.000000,2.000000,66.666664
1600979698.311161,122.000000,0.000000,4029.743652,4861.025879,4287.692383,4336.410156,4105.641113,4704.102539,4045.128174,3993.846191,4478.974121,4158.974121,4390.256348,4260.000000,4125.641113,4094.871826,434.000000,4.000000,,,,0.000000,4.000000,4.000000,4.000000,4.000000,4.000000,4.000000,4.000000,4.000000,4.000000,4.000000,2.000000,4.000000,4.000000,2.000000,66.666664
1600979698.318881,123.000000,0.000000,4029.230713,4854.871582,4285.641113,4338.461426,4100.000000,4707.179688,4046.153809,3983.589844,4469.743652,4115.384766,4387.179688,4248.717773,4119.487305,4093.846191,176.000000,4.000000,,,,0.000000,4.000000,4.000000,4.000000,4.000000,4.000000,4.000000,4.000000,4.000000,4.000000,4.000000,2.000000,4.000000,4.000000,2.000000,66.666664
1600979698.326702,124.000000,0.000000,4017.435791,4849.743652,4286.666504,4329.743652,4121.025879,4698.461426,4051.281982,3976.923096,4474.358887,4106.666504,4383.589844,4249.230957,4118.461426,4092.820557,291.000000,4.000000,,,,0.000000,4.000000,4.000000,4.000000,4.000000,4.000000,4.000000,4.000000,4.000000,4.000000,4.000000,2.000000,4.000000,4.000000,2.000000,66.666664
1600979698.334422,125.000000,0.000000,4012.307617,4849.230957,4291.794922,4325.641113,4125.641113,4701.025879,4044.615479,3977.948730,4466.153809,4136.410156,4382.563965,4259.487305,4117.948730,4090.769287,339.000000,4.000000,,,,0.000000,4.000000,4.000000,4.000000,4.000000,4.000000,4.000000,4.000000,4.000000,4.000000,4.000000,2.000000,4.000000,4.000000,2.000000,66.666664
1600979698.342243,126.000000,0.000000,4023.076904,4845.128418,4283.589844,4329.743652,4089.743652,4707.692383,4047.179443,3976.923096,4449.230957,4128.205078,4381.025879,4251.794922,4109.230957,4088.718018,434.000000,4.000000,,,,0.000000,4.000000,4.000000,4.000000,4.000000,4.000000,4.000000,4.000000,4.000000,4.000000,4.000000,2.000000,4.000000,4.000000,2.000000,66.666664
1600979698.349963,127.000000,0.000000,4027.692383,4842.051270,4276.410156,4328.717773,4081.025635,4700.000000,4052.307617,3978.974365,4460.512695,4116.922852,4379.487305,4242.563965,4107.179688,4087.692383,176.000000,4.000000,,,,0.000000,4.000000,4.000000,4.000000,4.000000,4.000000,4.000000,4.000000,4.000000,4.000000,4.000000,2.000000,4.000000,4.000000,2.000000,66.666664
1600979698.357883,128.000000,0.000000,4021.538574,4840.000000,4284.102539,4324.102539,4112.307617,4693.333496,4044.615479,3985.128174,4475.384766,4146.666504,4381.025879,4253.846191,4115.897461,4088.205078,291.000000,4.000000,,,,0.000000,4.000000,4.000000,4.000000,4.000000,4.000000,4.000000,4.000000,4.000000,4.000000,4.000000,2.000000,4.000000,4.000000,2.000000,66.666664
1600979698.365704,0.000000,0.000000,4013.333252,4829.743652,4283.589844,4315.384766,4107.692383,4689.743652,4035.384521,3974.358887,4447.179688,4135.897461,4376.410156,4254.871582,4111.794922,4085.128174,392.000000,4.000000,,,,0.000000,4.000000,4.000000,4.000000,4.000000,4.000000,4.000000,4.000000,4.000000,4.000000,4.000000,2.000000,4.000000,4.000000,2.000000,66.666664
1600979698.373624,1.000000,0.000000,4020.512939,4836.922852,4285.128418,4322.563965,4084.615479,4692.307617,4040.512939,3968.205078,4436.922852,4106.666504,4382.563965,4250.769043,4119.487305,4090.769287,429.000000,4.000000,,,,0.000000,4.000000,4.000000,4.000000,4.000000,4.000000,4.000000,4.000000,4.000000,4.000000,4.000000,2.000000,4.000000,4.000000,2.000000,66.666664
1600979698.381444,2.000000,0.000000,4026.666748,4846.666504,4293.846191,4331.794922,4096.922852,4696.922852,4045.128174,3977.435791,4463.589844,4127.692383,4391.794922,4256.410156,4135.384766,4100.000000,440.000000,4.000000,,,,0.000000,4.000000,4.000000,4.000000,4.000000,4.000000,4.000000,4.000000,4.000000,4.000000,4.000000,2.000000,4.000000,4.000000,2.000000,66.666664
1600979698.389365,3.000000,0.000000,4009.743652,4825.641113,4283.077148,4315.384766,4116.922852,4688.205078,4035.897461,3970.256348,4447.692383,4142.563965,4378.974121,4250.769043,4120.000000,4089.743652,447.000000,4.000000,,,,0.000000,4.000000,4.000000,4.000000,4.000000,4.000000,4.000000,4.000000,4.000000,4.000000,4.000000,2.000000,4.000000,4.000000,2.000000,66.666664
1600979698.397185,4.000000,0.000000,3993.846191,4807.692383,4270.256348,4300.512695,4104.615234,4680.000000,4028.205078,3955.384521,4408.205078,4118.974121,4366.666504,4241.025879,4101.025879,4078.974365,467.000000,4.000000,,,,0.000000,4.000000,4.000000,4.000000,4.000000,4.000000,4.000000,4.000000,4.000000,4.000000,4.000000,2.000000,4.000000,4.000000,2.000000,66.666664
1600979698.405105,5.000000,0.000000,4008.718018,4823.077148,4282.563965,4318.461426,4095.384521,4689.230957,4036.410156,3966.666748,4431.794922,4117.436035,4376.410156,4250.256348,4115.384766,4089.743652,431.000000,4.000000,,,,0.000000,4.000000,4.000000,4.000000,4.000000,4.000000,4.000000,4.000000,4.000000,4.000000,4.000000,2.000000,4.000000,4.000000,2.000000,66.666664
1600979698.412926,6.000000,0.000000,4021.538574,4829.743652,4289.743652,4329.230957,4104.102539,4697.436035,4043.076904,3977.435791,4463.077148,4138.461426,4381.025879,4257.948730,4127.692383,4095.897461,442.000000,4.000000,,,,0.000000,4.000000,4.000000,4.000000,4.000000,4.000000,4.000000,4.000000,4.000000,4.000000,4.000000,2.000000,4.000000,4.000000,2.000000,66.666664
1600979698.420846,7.000000,0.000000,4008.205078,4813.846191,4280.000000,4316.922852,4101.538574,4697.436035,4038.461426,3966.153809,4438.974121,4140.512695,4376.410156,4251.282227,4121.538574,4092.307617,390.000000,4.000000,,,,0.000000,4.000000,4.000000,4.000000,4.000000,4.000000,4.000000,4.000000,4.000000,4.000000,4.000000,2.000000,4.000000,4.000000,2.000000,66.666664
1600979698.428666,8.000000,0.000000,3993.846191,4801.538574,4273.333496,4305.641113,4078.974365,4686.153809,4030.769287,3951.794922,4413.333496,4114.358887,4371.282227,4242.563965,4113.846191,4092.307617,392.000000,4.000000,,,,0.000000,4.000000,4.000000,4.000000,4.000000,4.000000,4.000000,4.000000,4.000000,4.000000,4.000000,2.000000,4.000000,4.000000,2.000000,66.666664
1600979698.436586,9.000000,0.000000,4000.000000,4800.512695,4272.307617,4305.641113,4068.718018,4677.436035,4035.384521,3956.410156,4422.563965,4096.410156,4369.230957,4240.512695,4110.769043,4087.692383,396.000000,4.000000,,,,0.000000,4.000000,4.000000,4.000000,4.000000,4.000000,4.000000,4.000000,4.000000,4.000000,4.000000,2.000000,4.000000,4.000000,2.000000,66.666664
1600979698.444407,10.000000,0.000000,4018.974365,4811.282227,4277.436035,4322.563965,4091.794922,4693.846191,4048.205078,3968.718018,4432.820313,4132.307617,4382.563965,4251.282227,4124.102539,4087.179443,433.000000,4.000000,,,,0.000000,4.000000,4.000000,4.000000,4.000000,4.000000,4.000000,4.000000,4.000000,4.000000,4.000000,2.000000,4.000000,4.000000,2.000000,66.666664
1600979698.452127,11.000000,0.000000,4026.153809,4822.563965,4286.153809,4335.384766,4115.384766,4709.743652,4048.718018,3969.230713,4423.077148,4157.436035,4394.358887,4262.051270,4140.512695,4096.922852,176.000000,4.000000,,,,0.000000,4.000000,4.000000,4.000000,4.000000,4.000000,4.000000,4.000000,4.000000,4.000000,4.000000,2.000000,4.000000,4.000000,2.000000,66.666664
1600979698.459948,12.000000,0.000000,4012.307617,4813.846191,4281.538574,4322.051270,4104.102539,4700.000000,4042.564209,3971.281982,4418.974121,4133.846191,4386.153809,4256.922852,4131.794922,4095.384521,293.000000,4.000000,,,,0.000000,4.000000,4.000000,4.000000,4.000000,4.000000,4.000000,4.000000,4.000000,4.000000,4.000000,2.000000,4.000000,4.000000,2.000000,66.666664
1600979698.467668,13.000000,0.000000,3997.948730,4804.102539,4272.820313,4313.333496,4089.230713,4690.769043,4043.589844,3983.076904,4428.205078,4126.153809,4377.436035,4251.282227,4119.487305,4086.153809,339.000000,4.000000,,,,0.000000,4.000000,4.000000,4.000000,4.000000,4.000000,4.000000,4.000000,4.000000,4.000000,4.000000,2.000000,4.000000,4.000000,2.000000,66.666664
1600979698.475488,14.000000,0.000000,4000.512939,4811.794922,4276.410156,4318.974121,4099.487305,4693.333496,4043.076904,3980.000000,4423.589844,4132.820313,4380.512695,4253.333496,4122.051270,4088.718018,433.000000,4.000000,,,,0.000000,4.000000,4.000000,4.000000,4.000000,4.000000,4.000000,4.000000,4.000000,4.000000,4.000000,2.000000,4.000000,4.000000,2.000000,66.666664
1600979698.483209,15.000000,0.000000,4001.025635,4808.717773,4275.384766,4312.820313,4101.538574,4688.717773,4031.281982,3959.487061,4401.025879,4115.384766,4379.487305,4247.179688,4120.000000,4091.281982,176.000000,4.000000,,,,0.000000,4.000000,4.000000,4.000000,4.000000,4.000000,4.000000,4.000000,4.000000,4.000000,4.000000,2.000000,4.000000,4.000000,2.000000,66.666664
1600979698.491029,16.000000,0.000000,3989.230713,4788.717773,4262.051270,4301.025879,4076.410156,4684.102539,4024.102539,3951.281982,4382.563965,4106.153809,4372.307617,4234.871582,4108.205078,4085.128174,0.000000,4.000000,,,,0.000000,4.000000,4.000000,4.000000,4.000000,4.000000,4.000000,4.000000,4.000000,4.000000,4.000000,2.000000,4.000000,4.000000,2.000000,66.666664
1600979698.498750,17.000000,0.000000,3975.384521,4771.282227,4251.794922,4297.436035,4057.948730,4674.358887,4023.076904,3951.281982,4373.333496,4096.922852,4356.410156,4228.205078,4091.794922,4077.435791,0.000000,4.000000,,,,0.000000,4.000000,4.000000,4.000000,4.000000,4.000000,4.000000,4.000000,4.000000,4.000000,4.000000,2.000000,4.000000,4.000000,2.000000,66.666664
1600979698.506570,18.000000,0.000000,3989.743652,4781.025879,4264.102539,4311.794922,4075.384521,4679.487305,4035.897461,3965.641113,4390.769043,4098.974121,4358.461426,4239.487305,4102.563965,4082.051270,0.000000,4.000000,,,,0.000000,4.000000,4.000000,4.000000,4.000000,4.000000,4.000000,4.000000,4.000000,4.000000,4.000000,2.000000,4.000000,4.000000,2.000000,66.666664
1600979698.514291,19.000000,0.000000,4009.743652,4789.743652,4269.743652,4317.948730,4085.641113,4698.461426,4048.205078,3982.564209,4408.205078,4124.102539,4377.948730,4249.743652,4129.230957,4090.769287,0.000000,4.000000,,,,0.000000,4.000000,4.000000,4.000000,4.000000,4.000000,4.000000,4.000000,4.000000,4.000000,4.000000,2.000000,4.000000,4.000000,2.000000,66.666664
1600979698.522111,20.000000,0.000000,4000.000000,4772.820313,4256.410156,4302.563965,4067.179443,4694.358887,4043.076904,3972.820557,4392.820313,4123.077148,4378.974121,4236.410156,4131.794922,4087.179443,0.000000,4.000000,,,,0.000000,4.000000,4.000000,4.000000,4.000000,4.000000,4.000000,4.000000,4.000000,4.000000,4.000000,2.000000,4.000000,4.000000,2.000000,66.666664
1600979698.529831,21.000000,0.000000,3992.307617,4771.794922,4258.461426,4300.512695,4069.743652,4680.512695,4042.051270,3966.666748,4394.871582,4121.538574,4375.897461,4233.333496,4130.769043,4090.256348,0.000000,4.000000,,,,0.000000,4.000000,4.000000,4.000000,4.000000,4.000000,4.000000,4.000000,4.000000,4.000000,4.000000,2.000000,4.000000,4.000000,2.000000,66.666664
1600979698.537752,22.000000,0.000000,4009.230713,4793.846191,4275.897461,4320.000000,4094.358887,4690.256348,4046.153809,3987.692383,4422.563965,4156.410156,4393.333496,4252.820313,4152.307617,4105.128418,0.000000,4.000000,,,,0.000000,4.000000,4.000000,4.000000,4.000000,4.000000,4.000000,4.000000,4.000000,4.000000,4.000000,2.000000,4.000000,4.000000,2.000000,66.666664
1600979698.545572,23.000000,0.000000,4008.718018,4788.205078,4275.897461,4316.922852,4090.256348,4698.974121,4040.512939,3984.615479,4404.615234,4148.205078,4392.307617,4251.794922,4148.717773,4103.077148,0.000000,4.000000,,,,0.000000,4.000000,4.000000,4.000000,4.000000,4.000000,4.000000,4.000000,4.000000,4.000000,4.000000,2.000000,4.000000,4.000000,2.000000,66.666664
1600979698.553492,24.000000,0.000000,3993.846191,4766.153809,4268.717773,4300.512695,4074.358887,4686.153809,4043.076904,3966.153809,4374.358887,4105.128418,4368.205078,4237.948730,4121.538574,4088.718018,0.000000,4.000000,,,,0.000000,4.000000,4.000000,4.000000,4.000000,4.000000,4.000000,4.000000,4.000000,4.000000,4.000000,2.000000,4.000000,4.000000,2.000000,66.666664
1600979698.561313,25.000000,0.000000,3994.871826,4764.615234,4267.692383,4298.461426,4064.102539,4671.282227,4041.538574,3968.205078,4381.538574,4099.487305,4366.153809,4240.512695,4120.512695,4087.179443,0.000000,4.000000,,,,0.000000,4.000000,4.000000,4.000000,4.000000,4.000000,4.000000,4.000000,4.000000,4.000000,4.000000,2.000000,4.000000,4.000000,2.000000,66.666664
1600979698.569233,26.000000,0.000000,4001.538574,4769.743652,4264.615234,4302.051270,4060.000000,4674.358887,4027.179443,3970.256348,4384.615234,4128.205078,4377.436035,4242.563965,4133.846191,4094.871826,0.000000,4.000000,,,,0.000000,4.000000,4.000000,4.000000,4.000000,4.000000,4.000000,4.000000,4.000000,4.000000,4.000000,2.000000,4.000000,4.000000,2.000000,66.666664
1600979698.577053,27.000000,0.000000,4004.102539,4773.846191,4266.666504,4307.692383,4092.820557,4690.256348,4033.846191,3969.743652,4376.922852,4152.820313,4377.948730,4246.153809,4137.436035,4100.000000,0.000000,4.000000,,,,0.000000,4.000000,4.000000,4.000000,4.000000,4.000000,4.000000,4.000000,4.000000,4.000000,4.000000,2.000000,4.000000,4.000000,2.000000,66.666664
1600979698.584974,28.000000,0.000000,4006.666748,4780.000000,4272.820313,4311.282227,4107.179688,4691.282227,4051.794922,3976.410156,4380.000000,4137.436035,4377.436035,4253.333496,4136.410156,4098.461426,0.000000,4.000000,,,,0.000000,4.000000,4.000000,4.000000,4.000000,4.000000,4.000000,4.000000,4.000000,4.000000,4.000000,2.000000,4.000000,4.000000,2.000000,66.666664
1600979698.592794,29.000000,0.000000,4008.718018,4780.000000,4269.230957,4312.307617,4070.256348,4685.128418,4050.256348,3975.384521,4384.615234,4112.820313,4380.512695,4249.230957,4138.461426,4097.436035,0.000000,4.000000,,,,0.000000,4.000000,4.000000,4.000000,4.000000,4.000000,4.000000,4.000000,4.000000,4.000000,4.000000,2.000000,4.000000,4.000000,2.000000,66.666664
1600979698.600714,30.000000,0.000000,4001.025635,4769.230957,4260.512695,4307.692383,4064.102539,4691.282227,4043.589844,3971.281982,4377.948730,4132.307617,4375.897461,4239.487305,4137.948730,4094.871826,0.000000,4.000000,,,,0.000000,4.000000,4.000000,4.000000,4.000000,4.000000,4.000000,4.000000,4.000000,4.000000,4.000000,2.000000,4.000000,4.000000,2.000000,66.666664
1600979698.608535,31.000000,0.000000,3990.769287,4757.948730,4256.410156,4299.487305,4091.281982,4689.743652,4045.641113,3975.897461,4367.692383,4144.102539,4368.205078,4240.512695,4133.846191,4088.718018,0.000000,4.000000,,,,0.000000,4.000000,4.000000,4.000000,4.000000,4.000000,4.000000,4.000000,4.000000,4.000000,4.000000,2.000000,4.000000,4.000000,2.000000,66.666664
1600979698.616455,32.000000,0.000000,3997.948730,4764.102539,4263.077148,4302.051270,4097.436035,4685.128418,4049.230713,3978.974365,4373.846191,4128.717773,4377.948730,4252.307617,4141.025879,4093.846191,0.000000,4.000000,,,,0.000000,4.000000,4.000000,4.000000,4.000000,4.000000,4.000000,4.000000,4.000000,4.000000,4.000000,2.000000,4.000000,4.000000,2.000000,66.666664
1600979698.624275,33.000000,0.000000,4012.820557,4781.025879,4273.846191,4314.358887,4097.948730,4690.256348,4054.871826,3985.641113,4389.743652,4151.794922,4393.333496,4262.051270,4158.974121,4106.153809,0.000000,4.000000,,,,0.000000,4.000000,4.000000,4.000000,4.000000,4.000000,4.000000,4.000000,4.000000,4.000000,4.000000,2.000000,4.000000,4.000000,2.000000,66.666664
1600979698.632196,34.000000,0.000000,3996.410156,4768.717773,4265.128418,4303.589844,4080.000000,4681.025879,4049.230713,3981.538574,4377.436035,4153.846191,4380.000000,4248.717773,4147.179688,4099.487305,0.000000,4.000000,,,,0.000000,4.000000,4.000000,4.000000,4.000000,4.000000,4.000000,4.000000,4.000000,4.000000,4.000000,2.000000,4.000000,4.000000,2.000000,66.666664
1600979698.640016,35.000000,0.000000,3980.000000,4749.743652,4253.846191,4290.769043,4060.512939,4672.307617,4039.487061,3970.256348,4362.051270,4116.410156,4364.102539,4234.358887,4126.666504,4087.692383,0.000000,4.000000,,,,0.000000,4.000000,4.000000,4.000000,4.000000,4.000000,4.000000,4.000000,4.000000,4.000000,4.000000,2.000000,4.000000,4.000000,2.000000,66.666664
1600979698.647736,36.000000,0.000000,3995.897461,4761.025879,4260.512695,4302.051270,4077.948730,4687.179688,4043.076904,3978.974365,4374.358887,4122.051270,4376.922852,4245.641113,4141.025879,4092.820557,0.000000,4.000000,,,,0.000000,4.000000,4.000000,4.000000,4.000000,4.000000,4.000000,4.000000,4.000000,4.000000,4.000000,2.000000,4.000000,4.000000,2.000000,66.666664
1600979698.655557,37.000000,0.000000,4005.128174,4771.794922,4267.179688,4305.128418,4086.666748,4691.794922,4051.281982,3991.281982,4372.820313,4141.025879,4388.205078,4253.333496,4153.846191,4095.897461,0.000000,4.000000,,,,0.000000,4.000000,4.000000,4.000000,4.000000,4.000000,4.000000,4.000000,4.000000,4.000000,4.000000,2.000000,4.000000,4.000000,2.000000,66.666664
1600979698.663277,38.000000,0.000000,3994.358887,4760.000000,4266.666504,4294.871582,4076.410156,4674.871582,4050.769287,3984.102539,4355.897461,4141.025879,4378.974121,4247.179688,4140.512695,4089.230713,0.000000,4.000000,,,,0.000000,4.000000,4.000000,4.000000,4.000000,4.000000,4.000000,4.000000,4.000000,4.000000,4.000000,2.000000,4.000000,4.000000,2.000000,66.666664
1600979698.671098,39.000000,0.000000,4005.128174,4764.615234,4278.974121,4307.179688,4097.948730,4684.615234,4055.897461,3985.128174,4370.769043,4140.000000,4381.538574,4254.358887,4146.153809,4095.384521,0.000000,4.000000,,,,0.000000,4.000000,4.000000,4.000000,4.000000,4.000000,4.000000,4.000000,4.000000,4.000000,4.000000,2.000000,4.000000,4.000000,2.000000,66.666664
1600979698.678818,40.000000,0.000000,4013.333252,4767.692383,4285.128418,4310.769043,4100.512695,4688.205078,4053.846191,3985.128174,4376.410156,4115.897461,4386.666504,4256.922852,4153.846191,4105.128418,0.000000,4.000000,,,,0.000000,4.000000,4.000000,4.000000,4.000000,4.000000,4.000000,4.000000,4.000000,4.000000,4.000000,2.000000,4.000000,4.000000,2.000000,66.666664
1600979698.686638,41.000000,0.000000,3998.974365,4747.692383,4275.384766,4291.282227,4071.281982,4670.769043,4041.025635,3971.281982,4352.307617,4110.256348,4374.358887,4245.641113,4139.487305,4097.948730,0.000000,4.000000,,,,0.000000,4.000000,4.000000,4.000000,4.000000,4.000000,4.000000,4.000000,4.000000,4.000000,4.000000,2.000000,4.000000,4.000000,2.000000,66.666664
1600979698.694359,42.000000,0.000000,4008.205078,4751.282227,4283.077148,4298.461426,4079.487061,4685.128418,4049.743652,3977.435791,4352.820313,4152.307617,4372.820313,4256.410156,4145.641113,4094.358887,0.000000,4.000000,,,,0.000000,4.000000,4.000000,4.000000,4.000000,4.000000,4.000000,4.000000,4.000000,4.000000,4.000000,2.000000,4.000000,4.000000,2.000000,66.666664
1600979698.702179,43.000000,0.000000,4037.435791,4782.563965,4306.153809,4323.589844,4110.256348,4713.846191,4072.307617,4001.538574,4372.820313,4160.512695,4388.717773,4277.948730,4168.717773,4102.051270,0.000000,4.000000,,,,0.000000,4.000000,4.000000,4.000000,4.000000,4.000000,4.000000,4.000000,4.000000,4.000000,4.000000,2.000000,4.000000,4.000000,2.000000,66.666664
1600979698.709900,44.000000,0.000000,4040.000000,4786.153809,4304.615234,4321.538574,4114.358887,4705.641113,4067.179443,4004.615479,4371.282227,4140.512695,4389.743652,4272.820313,4165.128418,4099.487305,0.000000,4.000000,,,,0.000000,4.000000,4.000000,4.000000,4.000000,4.000000,4.000000,4.000000,4.000000,4.000000,4.000000,2.000000,4.000000,4.000000,2.000000,66.666664
1600979698.717720,45.000000,0.000000,4017.435791,4761.025879,4282.051270,4302.563965,4090.769287,4679.487305,4042.051270,3985.641113,4353.846191,4139.487305,4375.897461,4255.384766,4146.153809,4089.743652,0.000000,4.000000,,,,0.000000,4.000000,4.000000,4.000000,4.000000,4.000000,4.000000,4.000000,4.000000,4.000000,4.000000,2.000000,4.000000,4.000000,2.000000,66.666664
1600979698.725441,46.000000,0.000000,3996.923096,4742.563965,4268.205078,4288.205078,4064.102539,4664.102539,4030.256348,3967.179443,4340.000000,4115.897461,4370.256348,4249.230957,4135.384766,4089.230713,0.000000,4.000000,,,,0.000000,4.000000,4.000000,4.000000,4.000000,4.000000,4.000000,4.000000,4.000000,4.000000,4.000000,2.000000,4.000000,4.000000,2.000000,66.666664
1600979698.733361,47.000000,0.000000,3990.256348,4736.410156,4268.205078,4283.589844,4072.307617,4665.641113,4037.948730,3960.000000,4336.922852,4098.974121,4374.871582,4254.358887,4132.820313,4089.743652,0.000000,4.000000,,,,0.000000,4.000000,4.000000,4.000000,4.000000,4.000000,4.000000,4.000000,4.000000,4.000000,4.000000,2.000000,4.000000,4.000000,2.000000,66.666664
1600979698.741181,48.000000,0.000000,4007.179443,4751.282227,4283.077148,4298.974121,4106.153809,4693.846191,4057.435791,3980.512939,4357.948730,4141.025879,4383.077148,4268.717773,4146.153809,4093.846191,0.000000,4.000000,,,,0.000000,4.000000,4.000000,4.000000,4.000000,4.000000,4.000000,4.000000,4.000000,4.000000,4.000000,2.000000,4.000000,4.000000,2.000000,66.666664
1600979698.749101,49.000000,0.000000,4019.487061,4766.153809,4294.871582,4311.282227,4108.717773,4703.589844,4067.692383,3996.410156,4370.769043,4164.102539,4385.128418,4276.922852,4156.922852,4100.512695,0.000000,4.000000,,,,0.000000,4.000000,4.000000,4.000000,4.000000,4.000000,4.000000,4.000000,4.000000,4.000000,4.000000,2.000000,4.000000,4.000000,2.000000,66.666664
1600979698.756922,50.000000,0.000000,4007.179443,4749.230957,4284.102539,4301.538574,4086.153809,4672.820313,4049.743652,3970.769287,4338.974121,4132.307617,4377.436035,4265.128418,4143.589844,4094.358887,0.000000,4.000000,,,,0.000000,4.000000,4.000000,4.000000,4.000000,4.000000,4.000000,4.000000,4.000000,4.000000,4.000000,2.000000,4.000000,4.000000,2.000000,66.666664
1600979698.764842,51.000000,0.000000,4004.615479,4735.384766,4275.384766,4296.922852,4078.461426,4667.179688,4035.384521,3954.871826,4322.051270,4107.179688,4374.358887,4261.025879,4140.000000,4091.794922,0.000000,4.000000,,,,0.000000,4.000000,4.000000,4.000000,4.000000,4.000000,4.000000,4.000000,4.000000,4.000000,4.000000,2.000000,4.000000,4.000000,2.000000,66.666664
1600979698.772662,52.000000,0.000000,4027.692383,4765.128418,4294.871582,4312.820313,4102.051270,4698.461426,4056.410156,3993.846191,4360.512695,4132.820313,4392.820313,4280.000000,4172.307617,4105.641113,0.000000,4.000000,,,,0.000000,4.000000,4.000000,4.000000,4.000000,4.000000,4.000000,4.000000,4.000000,4.000000,4.000000,2.000000,4.000000,4.000000,2.000000,66.666664
1600979698.780583,53.000000,0.000000,4030.769287,4774.358887,4301.025879,4313.846191,4112.820313,4707.179688,4064.615479,4009.230713,4381.538574,4166.666504,4399.487305,4284.102539,4186.666504,4106.153809,0.000000,4.000000,,,,0.000000,4.000000,4.000000,4.000000,4.000000,4.000000,4.000000,4.000000,4.000000,4.000000,4.000000,2.000000,4.000000,4.000000,2.000000,66.666664
1600979698.788403,54.000000,0.000000,4010.769287,4742.563965,4283.589844,4297.436035,4086.666748,4690.256348,4046.666748,3972.307617,4348.205078,4169.743652,4380.000000,4268.205078,4166.153809,4090.769287,0.000000,4.000000,,,,0.000000,4.000000,4.000000,4.000000,4.000000,4.000000,4.000000,4.000000,4.000000,4.000000,4.000000,2.000000,4.000000,4.000000,2.000000,66.666664
1600979698.796323,55.000000,0.000000,4000.512939,4736.410156,4277.436035,4288.717773,4073.333252,4675.897461,4045.128174,3961.538574,4326.153809,4149.230957,4370.769043,4265.641113,4159.487305,4088.718018,0.000000,4.000000,,,,0.000000,4.000000,4.000000,4.000000,4.000000,4.000000,4.000000,4.000000,4.000000,4.000000,4.000000,2.000000,4.000000,4.000000,2.000000,66.666664
1600979698.804144,56.000000,0.000000,4007.179443,4752.820313,4285.128418,4291.282227,4088.718018,4679.487305,4057.948730,3980.000000,4345.128418,4133.846191,4381.025879,4271.282227,4174.358887,4096.922852,0.000000,4.000000,,,,0.000000,4.000000,4.000000,4.000000,4.000000,4.000000,4.000000,4.000000,4.000000,4.000000,4.000000,2.000000,4.000000,4.000000,2.000000,66.666664
1600979698.811964,57.000000,0.000000,4010.769287,4746.153809,4285.641113,4290.769043,4095.384521,4692.820313,4054.871826,3976.410156,4352.820313,4133.846191,4383.589844,4267.692383,4174.871582,4098.974121,0.000000,4.000000,,,,0.000000,4.000000,4.000000,4.000000,4.000000,4.000000,4.000000,4.000000,4.000000,4.000000,4.000000,2.000000,4.000000,4.000000,2.000000,66.666664
1600979698.819784,58.000000,0.000000,4014.871826,4742.051270,4291.282227,4297.948730,4097.436035,4693.333496,4053.333252,3975.897461,4351.794922,4140.000000,4380.000000,4271.282227,4173.333496,4098.974121,0.000000,4.000000,,,,0.000000,4.000000,4.000000,4.000000,4.000000,4.000000,4.000000,4.000000,4.000000,4.000000,4.000000,2.000000,4.000000,4.000000,2.000000,66.666664
1600979698.827505,59.000000,0.000000,4018.461426,4745.641113,4298.974121,4304.615234,4090.769287,4684.102539,4058.974365,3985.128174,4354.358887,4140.512695,4381.538574,4280.512695,4179.487305,4100.512695,0.000000,4.000000,,,,0.000000,4.000000,4.000000,4.000000,4.000000,4.000000,4.000000,4.000000,4.000000,4.000000,4.000000,2.000000,4.000000,4.000000,2.000000,66.666664
1600979698.835325,60.000000,0.000000,4012.820557,4733.333496,4293.333496,4290.256348,4072.307617,4689.230957,4055.897461,3993.846191,4357.436035,4150.769043,4384.102539,4277.948730,4181.538574,4095.384521,0.000000,4.000000,,,,0.000000,4.000000,4.000000,4.000000,4.000000,4.000000,4.000000,4.000000,4.000000,4.000000,4.000000,2.000000,4.000000,4.000000,2.000000,66.666664
1600979698.843046,61.000000,0.000000,4004.102539,4724.615234,4289.230957,4273.846191,4077.435791,4695.384766,4058.461426,4004.102539,4361.538574,4171.794922,4387.692383,4273.846191,4182.051270,4092.307617,0.000000,4.000000,,,,0.000000,4.000000,4.000000,4.000000,4.000000,4.000000,4.000000,4.000000,4.000000,4.000000,4.000000,2.000000,4.000000,4.000000,2.000000,66.666664
1600979698.850866,62.000000,0.000000,4002.564209,4728.205078,4294.871582,4275.897461,4092.307617,4684.615234,4066.666748,3998.974365,4352.307617,4160.512695,4391.282227,4280.512695,4187.692383,4098.974121,0.000000,4.000000,,,,0.000000,4.000000,4.000000,4.000000,4.000000,4.000000,4.000000,4.000000,4.000000,4.000000,4.000000,2.000000,4.000000,4.000000,2.000000,66.666664
1600979698.858587,63.000000,0.000000,4010.769287,4733.846191,4303.077148,4289.743652,4085.641113,4694.358887,4069.230713,3988.718018,4351.282227,4142.051270,4396.922852,4290.256348,4201.025879,4107.179688,0.000000,4.000000,,,,0.000000,4.000000,4.000000,4.000000,4.000000,4.000000,4.000000,4.000000,4.000000,4.000000,4.000000,2.000000,4.000000,4.000000,2.000000,66.666664
1600979698.866407,64.000000,0.000000,4008.205078,4730.769043,4302.563965,4291.282227,4083.589844,4704.102539,4060.512939,3990.256348,4355.897461,4153.846191,4402.563965,4284.615234,4204.615234,4104.102539,394.000000,4.000000,,,,0.000000,4.000000,4.000000,4.000000,4.000000,4.000000,4.000000,4.000000,4.000000,4.000000,4.000000,2.000000,4.000000,4.000000,2.000000,66.666664
1600979698.874127,65.000000,0.000000,3998.461426,4715.897461,4298.974121,4285.128418,4092.820557,4682.563965,4050.769287,3985.128174,4350.256348,4164.615234,4402.051270,4278.461426,4197.948730,4098.974121,434.000000,4.000000,,,,0.000000,4.000000,4.000000,4.000000,4.000000,4.000000,4.000000,4.000000,4.000000,4.000000,4.000000,2.000000,4.000000,4.000000,2.000000,66.666664
1600979698.881948,66.000000,0.000000,3997.948730,4704.615234,4301.025879,4278.461426,4081.538574,4670.769043,4051.281982,3975.384521,4343.077148,4152.820313,4402.051270,4287.179688,4205.641113,4105.641113,444.000000,4.000000,,,,0.000000,4.000000,4.000000,4.000000,4.000000,4.000000,4.000000,4.000000,4.000000,4.000000,4.000000,2.000000,4.000000,4.000000,2.000000,66.666664
1600979698.889668,67.000000,0.000000,4000.000000,4705.641113,4307.179688,4270.769043,4067.179443,4688.205078,4063.589844,3990.769287,4361.025879,4147.692383,4409.230957,4296.410156,4218.461426,4113.846191,448.000000,4.000000,,,,0.000000,4.000000,4.000000,4.000000,4.000000,4.000000,4.000000,4.000000,4.000000,4.000000,4.000000,2.000000,4.000000,4.000000,2.000000,66.666664
1600979698.897589,68.000000,0.000000,3993.333252,4700.000000,4305.128418,4268.205078,4063.589844,4691.282227,4063.076904,3991.794922,4362.051270,4147.179688,4408.205078,4287.179688,4209.743652,4108.205078,467.000000,4.000000,,,,0.000000,4.000000,4.000000,4.000000,4.000000,4.000000,4.000000,4.000000,4.000000,4.000000,4.000000,2.000000,4.000000,4.000000,2.000000,66.666664
1600979698.905409,69.000000,0.000000,3997.948730,4706.666504,4305.128418,4281.025879,4079.487061,4686.666504,4054.358887,3977.948730,4334.871582,4151.794922,4408.205078,4284.102539,4209.743652,4106.153809,436.000000,4.000000,,,,0.000000,4.000000,4.000000,4.000000,4.000000,4.000000,4.000000,4.000000,4.000000,4.000000,4.000000,2.000000,4.000000,4.000000,2.000000,66.666664
1600979698.913329,70.000000,0.000000,4008.718018,4714.358887,4311.282227,4286.153809,4101.538574,4687.179688,4054.871826,3984.615479,4333.333496,4159.487305,4411.282227,4294.358887,4223.589844,4116.922852,443.000000,4.000000,,,,0.000000,4.000000,4.000000,4.000000,4.000000,4.000000,4.000000,4.000000,4.000000,4.000000,4.000000,2.000000,4.000000,4.000000,2.000000,66.666664
1600979698.921150,71.000000,0.000000,4003.076904,4692.820313,4306.153809,4269.230957,4086.153809,4670.256348,4052.820557,3983.076904,4341.538574,4151.794922,4410.256348,4291.794922,4220.512695,4118.974121,392.000000,4.000000,,,,0.000000,4.000000,4.000000,4.000000,4.000000,4.000000,4.000000,4.000000,4.000000,4.000000,4.000000,2.000000,4.000000,4.000000,2.000000,66.666664
1600979698.929070,72.000000,0.000000,3999.487061,4681.025879,4300.000000,4262.051270,4049.230713,4663.077148,4051.794922,3974.358887,4337.948730,4151.282227,4417.436035,4287.179688,4219.487305,4117.948730,397.000000,4.000000,,,,0.000000,4.000000,4.000000,4.000000,4.000000,4.000000,4.000000,4.000000,4.000000,4.000000,4.000000,2.000000,4.000000,4.000000,2.000000,66.666664
1600979698.936890,73.000000,0.000000,4018.461426,4707.692383,4315.897461,4282.051270,4060.512939,4696.922852,4071.281982,3996.923096,4353.846191,4169.230957,4438.974121,4302.051270,4246.666504,4130.256348,400.000000,4.000000,,,,0.000000,4.000000,4.000000,4.000000,4.000000,4.000000,4.000000,4.000000,4.000000,4.000000,4.000000,2.000000,4.000000,4.000000,2.000000,66.666664
1600979698.944810,74.000000,0.000000,4022.051270,4711.794922,4321.538574,4288.205078,4099.487305,4708.205078,4076.923096,4011.281982,4365.641113,4167.692383,4440.512695,4305.128418,4257.436035,4134.871582,431.000000,4.000000,,,,0.000000,4.000000,4.000000,4.000000,4.000000,4.000000,4.000000,4.000000,4.000000,4.000000,4.000000,2.000000,4.000000,4.000000,2.000000,66.666664
1600979698.952631,75.000000,0.000000,4005.641113,4693.333496,4309.743652,4274.871582,4112.307617,4691.282227,4067.692383,3998.461426,4350.256348,4168.717773,4425.128418,4293.846191,4251.282227,4128.205078,176.000000,4.000000,,,,0.000000,4.000000,4.000000,4.000000,4.000000,4.000000,4.000000,4.000000,4.000000,4.000000,4.000000,2.000000,4.000000,4.000000,2.000000,66.666664
1600979698.960551,76.000000,0.000000,4006.153809,4692.307617,4310.256348,4271.794922,4108.717773,4701.538574,4077.435791,4004.615479,4352.820313,4202.051270,4429.230957,4298.974121,4261.538574,4127.692383,294.000000,4.000000,,,,0.000000,4.000000,4.000000,4.000000,4.000000,4.000000,4.000000,4.000000,4.000000,4.000000,4.000000,2.000000,4.000000,4.000000,2.000000,66.666664
1600979698.968371,77.000000,0.000000,4004.102539,4686.666504,4311.282227,4273.846191,4101.025879,4706.153809,4081.025635,4013.333252,4362.051270,4204.615234,4439.487305,4301.025879,4265.128418,4123.589844,340.000000,4.000000,,,,0.000000,4.000000,4.000000,4.000000,4.000000,4.000000,4.000000,4.000000,4.000000,4.000000,4.000000,2.000000,4.000000,4.000000,2.000000,66.666664
1600979698.976292,78.000000,0.000000,3980.000000,4668.717773,4295.897461,4262.051270,4083.076904,4686.153809,4064.102539,3992.307617,4338.461426,4159.487305,4428.717773,4283.077148,4247.692383,4114.358887,431.000000,4.000000,,,,0.000000,4.000000,4.000000,4.000000,4.000000,4.000000,4.000000,4.000000,4.000000,4.000000,4.000000,2.000000,4.000000,4.000000,2.000000,66.666664
1600979698.984112,79.000000,0.000000,3969.230713,4666.666504,4289.230957,4258.974121,4072.820557,4692.307617,4063.589844,3984.615479,4334.871582,4147.692383,4418.461426,4280.000000,4245.641113,4116.410156,176.000000,4.000000,,,,0.000000,4.000000,4.000000,4.000000,4.000000,4.000000,4.000000,4.000000,4.000000,4.000000,4.000000,2.000000,4.000000,4.000000,2.000000,66.666664
1600979698.992032,80.000000,0.000000,3980.512939,4673.333496,4295.897461,4270.256348,4083.076904,4704.102539,4066.666748,3995.384521,4358.461426,4167.692383,4426.666504,4292.820313,4262.563965,4122.563965,294.000000,4.000000,,,,0.000000,4.000000,4.000000,4.000000,4.000000,4.000000,4.000000,4.000000,4.000000,4.000000,4.000000,2.000000,4.000000,4.000000,2.000000,66.666664
1600979698.999853,81.000000,0.000000,3981.538574,4669.743652,4295.897461,4271.794922,4089.230713,4687.692383,4054.871826,3992.820557,4343.077148,4173.846191,4433.333496,4296.922852,4264.615234,4115.384766,340.000000,4.000000,,,,0.000000,4.000000,4.000000,4.000000,4.000000,4.000000,4.000000,4.000000,4.000000,4.000000,4.000000,2.000000,4.000000,4.000000,2.000000,66.666664
1600979699.007573,82.000000,0.000000,3980.000000,4664.102539,4301.538574,4267.179688,4090.256348,4685.641113,4060.512939,3987.692383,4320.512695,4165.641113,4430.769043,4301.538574,4262.051270,4108.717773,431.000000,4.000000,,,,0.000000,4.000000,4.000000,4.000000,4.000000,4.000000,4.000000,4.000000,4.000000,4.000000,4.000000,2.000000,4.000000,4.000000,2.000000,66.666664
1600979699.015394,83.000000,0.000000,3984.615479,4657.948730,4309.230957,4263.589844,4090.256348,4701.025879,4075.384521,3999.487061,4337.948730,4156.922852,4428.205078,4308.717773,4267.692383,4114.358887,176.000000,4.000000,,,,0.000000,4.000000,4.000000,4.000000,4.000000,4.000000,4.000000,4.000000,4.000000,4.000000,4.000000,2.000000,4.000000,4.000000,2.000000,66.666664
1600979699.023114,84.000000,0.000000,3987.692383,4662.563965,4311.282227,4267.179688,4089.743652,4698.974121,4077.435791,4023.076904,4363.077148,4177.436035,4432.820313,4311.794922,4280.000000,4119.487305,294.000000,4.000000,,,,0.000000,4.000000,4.000000,4.000000,4.000000,4.000000,4.000000,4.000000,4.000000,4.000000,4.000000,2.000000,4.000000,4.000000,2.000000,66.666664
1600979699.030934,85.000000,0.000000,3988.205078,4671.282227,4312.820313,4272.820313,4083.076904,4697.436035,4075.384521,4025.128174,4362.563965,4194.871582,4443.589844,4308.717773,4288.205078,4120.000000,340.000000,4.000000,,,,0.000000,4.000000,4.000000,4.000000,4.000000,4.000000,4.000000,4.000000,4.000000,4.000000,4.000000,2.000000,4.000000,4.000000,2.000000,66.666664
1600979699.038655,86.000000,0.000000,3982.564209,4660.512695,4307.179688,4271.794922,4078.461426,4702.563965,4072.820557,4003.589844,4346.153809,4176.922852,4447.179688,4301.538574,4284.615234,4116.410156,431.000000,4.000000,,,,0.000000,4.000000,4.000000,4.000000,4.000000,4.000000,4.000000,4.000000,4.000000,4.000000,4.000000,2.000000,4.000000,4.000000,2.000000,66.666664
1600979699.046475,87.000000,0.000000,3970.769287,4648.717773,4293.846191,4264.615234,4086.153809,4697.948730,4065.128174,3987.692383,4338.461426,4165.128418,4434.358887,4291.794922,4273.846191,4111.794922,176.000000,4.000000,,,,0.000000,4.000000,4.000000,4.000000,4.000000,4.000000,4.000000,4.000000,4.000000,4.000000,4.000000,2.000000,4.000000,4.000000,2.000000,66.666664
1600979699.054196,88.000000,0.000000,3970.256348,4652.307617,4290.256348,4262.563965,4092.307617,4693.333496,4063.076904,3990.256348,4342.563965,4172.820313,4426.153809,4287.692383,4270.769043,4108.717773,294.000000,4.000000,,,,0.000000,4.000000,4.000000,4.000000,4.000000,4.000000,4.000000,4.000000,4.000000,4.000000,4.000000,2.000000,4.000000,4.000000,2.000000,66.666664
1600979699.062016,89.000000,0.000000,3976.410156,4646.153809,4292.820313,4261.025879,4073.846191,4686.666504,4060.000000,3997.435791,4337.436035,4171.282227,4432.820313,4290.769043,4277.436035,4106.666504,340.000000,4.000000,,,,0.000000,4.000000,4.000000,4.000000,4.000000,4.000000,4.000000,4.000000,4.000000,4.000000,4.000000,2.000000,4.000000,4.000000,2.000000,66.666664
1600979699.069737,90.000000,0.000000,3973.846191,4639.487305,4291.794922,4257.436035,4060.512939,4691.794922,4056.923096,3996.410156,4329.743652,4174.358887,4435.897461,4294.358887,4281.025879,4107.692383,431.000000,4.000000,,,,0.000000,4.000000,4.000000,4.000000,4.000000,4.000000,4.000000,4.000000,4.000000,4.000000,4.000000,2.000000,4.000000,4.000000,2.000000,66.666664
1600979699.077557,91.000000,0.000000,3977.948730,4653.333496,4298.461426,4263.589844,4083.076904,4709.743652,4070.256348,3998.974365,4337.436035,4186.153809,4436.410156,4296.410156,4285.128418,4115.384766,176.000000,4.000000,,,,0.000000,4.000000,4.000000,4.000000,4.000000,4.000000,4.000000,4.000000,4.000000,4.000000,4.000000,2.000000,4.000000,4.000000,2.000000,66.666664
1600979699.085277,92.000000,0.000000,3991.281982,4665.128418,4309.743652,4276.410156,4106.153809,4716.410156,4086.666748,4010.256348,4350.769043,4190.256348,4445.641113,4300.000000,4296.922852,4122.051270,294.000000,4.000000,,,,0.000000,4.000000,4.000000,4.000000,4.000000,4.000000,4.000000,4.000000,4.000000,4.000000,4.000000,2.000000,4.000000,4.000000,2.000000,66.666664
1600979699.093198,93.000000,0.000000,3987.179443,4655.384766,4305.641113,4272.307617,4105.128418,4704.102539,4081.025635,4012.820557,4346.153809,4194.358887,4445.128418,4297.948730,4297.948730,4118.461426,340.000000,4.000000,,,,0.000000,4.000000,4.000000,4.000000,4.000000,4.000000,4.000000,4.000000,4.000000,4.000000,4.000000,2.000000,4.000000,4.000000,2.000000,66.666664
1600979699.101018,94.000000,0.000000,3976.410156,4644.615234,4298.974121,4262.051270,4096.410156,4695.384766,4068.718018,4003.589844,4330.769043,4183.589844,4433.846191,4294.871582,4288.205078,4112.820313,431.000000,4.000000,,,,0.000000,4.000000,4.000000,4.000000,4.000000,4.000000,4.000000,4.000000,4.000000,4.000000,4.000000,2.000000,4.000000,4.000000,2.000000,66.666664
1600979699.108838,95.000000,0.000000,3971.281982,4640.512695,4295.384766,4261.025879,4069.743652,4696.410156,4066.666748,3995.384521,4317.436035,4161.538574,4431.794922,4292.307617,4281.538574,4108.717773,176.000000,4.000000,,,,0.000000,4.000000,4.000000,4.000000,4.000000,4.000000,4.000000,4.000000,4.000000,4.000000,4.000000,2.000000,4.000000,4.000000,2.000000,66.666664
1600979699.116559,96.000000,0.000000,3959.487061,4631.794922,4283.077148,4256.922852,4034.871826,4690.256348,4058.974365,3985.128174,4307.692383,4150.256348,4431.282227,4280.512695,4277.948730,4103.077148,294.000000,4.000000,,,,0.000000,4.000000,4.000000,4.000000,4.000000,4.000000,4.000000,4.000000,4.000000,4.000000,4.000000,2.000000,4.000000,4.000000,2.000000,66.666664
1600979699.124479,97.000000,0.000000,3964.102539,4630.769043,4284.615234,4255.897461,4056.410156,4693.333496,4056.923096,3988.718018,4322.051270,4168.717773,4436.922852,4281.538574,4295.897461,4108.717773,340.000000,4.000000,,,,0.000000,4.000000,4.000000,4.000000,4.000000,4.000000,4.000000,4.000000,4.000000,4.000000,4.000000,2.000000,4.000000,4.000000,2.000000,66.666664
1600979699.132299,98.000000,0.000000,3990.769287,4635.384766,4305.641113,4264.102539,4096.922852,4707.692383,4068.718018,4007.692383,4340.512695,4206.153809,4450.769043,4303.077148,4327.692383,4122.051270,431.000000,4.000000,,,,0.000000,4.000000,4.000000,4.000000,4.000000,4.000000,4.000000,4.000000,4.000000,4.000000,4.000000,2.000000,4.000000,4.000000,2.000000,66.666664
1600979699.140220,99.000000,0.000000,4012.820557,4646.666504,4315.384766,4273.846191,4072.307617,4707.179688,4078.974365,4011.281982,4334.871582,4203.077148,4458.974121,4313.333496,4345.641113,4133.333496,176.000000,4.000000,,,,0.000000,4.000000,4.000000,4.000000,4.000000,4.000000,4.000000,4.000000,4.000000,4.000000,4.000000,2.000000,4.000000,4.000000,2.000000,66.666664
1600979699.148040,100.000000,0.000000,4042.051270,4687.179688,4316.410156,4284.615234,4049.230713,4685.128418,4069.743652,3995.384521,4313.333496,4164.615234,4453.846191,4308.205078,4352.820313,4144.615234,294.000000,4.000000,,,,0.000000,4.000000,4.000000,4.000000,4.000000,4.000000,4.000000,4.000000,4.000000,4.000000,4.000000,2.000000,4.000000,4.000000,2.000000,66.666664
1600979699.155960,101.000000,0.000000,4094.871826,4749.743652,4333.846191,4304.615234,4084.102539,4672.820313,4050.769287,3984.102539,4297.436035,4154.358887,4447.179688,4311.794922,4361.025879,4158.974121,340.000000,4.000000,,,,0.000000,4.000000,4.000000,4.000000,4.000000,4.000000,4.000000,4.000000,4.000000,4.000000,4.000000,2.000000,4.000000,4.000000,2.000000,66.666664
1600979699.163781,102.000000,0.000000,4130.769043,4793.846191,4343.589844,4324.615234,4070.256348,4669.230957,4038.974365,3968.718018,4283.589844,4131.794922,4441.538574,4311.282227,4348.205078,4166.666504,431.000000,4.000000,,,,0.000000,4.000000,4.000000,4.000000,4.000000,4.000000,4.000000,4.000000,4.000000,4.000000,4.000000,2.000000,4.000000,4.000000,2.000000,66.666664
1600979699.171701,103.000000,0.000000,4143.589844,4830.256348,4344.102539,4344.102539,4035.384521,4665.128418,4044.102539,3967.179443,4285.128418,4111.282227,4442.051270,4311.794922,4332.820313,4169.230957,176.000000,4.000000,,,,0.000000,4.000000,4.000000,4.000000,4.000000,4.000000,4.000000,4.000000,4.000000,4.000000,4.000000,2.000000,4.000000,4.000000,2.000000,66.666664
1600979699.179521,104.000000,0.000000,4143.077148,4855.897461,4346.153809,4347.179688,4061.025635,4663.589844,4043.076904,3970.769287,4277.948730,4137.436035,4431.794922,4313.333496,4314.871582,4165.128418,294.000000,4.000000,,,,0.000000,4.000000,4.000000,4.000000,4.000000,4.000000,4.000000,4.000000,4.000000,4.000000,4.000000,2.000000,4.000000,4.000000,2.000000,66.666664
1600979699.187242,105.000000,0.000000,4133.333496,4863.077148,4343.589844,4341.025879,4084.615479,4664.615234,4033.846191,3961.025635,4258.974121,4139.487305,4409.743652,4305.641113,4278.461426,4156.922852,340.000000,4.000000,,,,0.000000,4.000000,4.000000,4.000000,4.000000,4.000000,4.000000,4.000000,4.000000,4.000000,4.000000,2.000000,4.000000,4.000000,2.000000,66.666664
1600979699.195062,106.000000,0.000000,4122.563965,4863.589844,4334.358887,4343.077148,4070.256348,4665.128418,4035.897461,3952.307617,4260.000000,4088.718018,4396.922852,4292.820313,4241.538574,4149.230957,431.000000,4.000000,,,,0.000000,4.000000,4.000000,4.000000,4.000000,4.000000,4.000000,4.000000,4.000000,4.000000,4.000000,2.000000,4.000000,4.000000,2.000000,66.666664
1600979699.202783,107.000000,0.000000,4113.846191,4859.487305,4328.717773,4340.000000,4062.051270,4670.256348,4038.974365,3947.692383,4267.179688,4068.205078,4391.282227,4282.563965,4216.410156,4138.974121,176.000000,4.000000,,,,0.000000,4.000000,4.000000,4.000000,4.000000,4.000000,4.000000,4.000000,4.000000,4.000000,4.000000,2.000000,4.000000,4.000000,2.000000,66.666664
1600979699.210603,108.000000,0.000000,4111.282227,4863.077148,4330.769043,4338.974121,4077.948730,4676.922852,4035.384521,3953.846191,4268.717773,4104.102539,4393.846191,4287.692383,4210.256348,4136.410156,294.000000,4.000000,,,,0.000000,4.000000,4.000000,4.000000,4.000000,4.000000,4.000000,4.000000,4.000000,4.000000,4.000000,2.000000,4.000000,4.000000,2.000000,66.666664
1600979699.218324,109.000000,0.000000,4096.922852,4860.512695,4326.153809,4339.487305,4091.281982,4674.358887,4029.743652,3957.435791,4261.538574,4115.897461,4394.358887,4290.769043,4202.563965,4135.384766,340.000000,4.000000,,,,0.000000,4.000000,4.000000,4.000000,4.000000,4.000000,4.000000,4.000000,4.000000,4.000000,4.000000,2.000000,4.000000,4.000000,2.000000,66.666664
1600979699.226144,110.000000,0.000000,4073.333252,4837.436035,4312.820313,4330.769043,4077.435791,4663.589844,4025.641113,3945.128174,4251.794922,4078.461426,4380.512695,4276.410156,4178.461426,4124.615234,431.000000,4.000000,,,,0.000000,4.000000,4.000000,4.000000,4.000000,4.000000,4.000000,4.000000,4.000000,4.000000,4.000000,2.000000,4.000000,4.000000,2.000000,66.666664
1600979699.233864,111.000000,0.000000,4069.743652,4819.487305,4310.256348,4328.205078,4057.435791,4656.410156,4031.794922,3953.333252,4263.077148,4093.846191,4383.077148,4273.846191,4170.769043,4116.922852,176.000000,4.000000,,,,0.000000,4.000000,4.000000,4.000000,4.000000,4.000000,4.000000,4.000000,4.000000,4.000000,4.000000,2.000000,4.000000,4.000000,2.000000,66.666664
1600979699.241685,112.000000,0.000000,4063.589844,4809.230957,4307.692383,4323.077148,4061.025635,4658.974121,4037.435791,3972.307617,4271.282227,4150.256348,4390.769043,4281.538574,4173.333496,4115.384766,294.000000,4.000000,,,,0.000000,4.000000,4.000000,4.000000,4.000000,4.000000,4.000000,4.000000,4.000000,4.000000,4.000000,2.000000,4.000000,4.000000,2.000000,66.666664
1600979699.249405,113.000000,0.000000,4027.179443,4773.333496,4288.717773,4296.922852,4047.692383,4653.846191,4024.102539,3946.153809,4240.000000,4113.333496,4365.641113,4263.077148,4144.102539,4103.589844,340.000000,4.000000,,,,0.000000,4.000000,4.000000,4.000000,4.000000,4.000000,4.000000,4.000000,4.000000,4.000000,4.000000,2.000000,4.000000,4.000000,2.000000,66.666664
1600979699.257226,114.000000,0.000000,4023.076904,4764.615234,4295.384766,4303.589844,4046.153809,4660.512695,4030.769287,3938.974365,4250.256348,4054.871826,4361.538574,4258.974121,4137.436035,4102.051270,431.000000,4.000000,,,,0.000000,4.000000,4.000000,4.000000,4.000000,4.000000,4.000000,4.000000,4.000000,4.000000,4.000000,2.000000,4.000000,4.000000,2.000000,66.666664
1600979699.264946,115.000000,0.000000,4052.307617,4796.922852,4322.051270,4338.461426,4097.948730,4693.333496,4060.512939,3979.487061,4301.025879,4091.281982,4392.307617,4286.153809,4171.794922,4117.948730,176.000000,4.000000,,,,0.000000,4.000000,4.000000,4.000000,4.000000,4.000000,4.000000,4.000000,4.000000,4.000000,4.000000,2.000000,4.000000,4.000000,2.000000,66.666664
1600979699.272866,116.000000,0.000000,4025.641113,4774.358887,4301.025879,4319.487305,4106.153809,4688.205078,4047.692383,3968.718018,4268.717773,4125.128418,4382.563965,4274.358887,4152.307617,4106.153809,294.000000,4.000000,,,,0.000000,4.000000,4.000000,4.000000,4.000000,4.000000,4.000000,4.000000,4.000000,4.000000,4.000000,2.000000,4.000000,4.000000,2.000000,66.666664
1600979699.280687,117.000000,0.000000,3982.051270,4727.179688,4271.794922,4280.000000,4057.435791,4650.769043,4028.205078,3937.948730,4222.051270,4098.461426,4349.743652,4245.128418,4110.769043,4083.076904,340.000000,4.000000,,,,0.000000,4.000000,4.000000,4.000000,4.000000,4.000000,4.000000,4.000000,4.000000,4.000000,4.000000,2.000000,4.000000,4.000000,2.000000,66.666664
1600979699.288607,118.000000,0.000000,4006.153809,4749.743652,4296.922852,4305.128418,4063.076904,4668.205078,4056.923096,3964.615479,4274.358887,4092.307617,4364.102539,4267.179688,4140.512695,4096.922852,431.000000,4.000000,,,,0.000000,4.000000,4.000000,4.000000,4.000000,4.000000,4.000000,4.000000,4.000000,4.000000,4.000000,2.000000,4.000000,4.000000,2.000000,66.666664
1600979699.296427,119.000000,0.000000,4022.051270,4769.743652,4313.333496,4330.256348,4086.666748,4691.794922,4057.948730,3970.769287,4294.358887,4114.871582,4385.128418,4282.563965,4163.589844,4110.769043,176.000000,4.000000,,,,0.000000,4.000000,4.000000,4.000000,4.000000,4.000000,4.000000,4.000000,4.000000,4.000000,4.000000,2.000000,4.000000,4.000000,2.000000,66.666664
1600979699.304348,120.000000,0.000000,3986.666748,4728.717773,4285.128418,4301.538574,4061.025635,4658.974121,4024.102539,3941.538574,4236.922852,4114.871582,4372.820313,4255.384766,4133.333496,4091.794922,294.000000,4.000000,,,,0.000000,4.000000,4.000000,4.000000,4.000000,4.000000,4.000000,4.000000,4.000000,4.000000,4.000000,2.000000,4.000000,4.000000,2.000000,66.666664
1600979699.312168,121.000000,0.000000,3972.820557,4710.769043,4275.384766,4287.179688,4049.230713,4651.794922,4032.307617,3950.256348,4244.102539,4090.769287,4365.128418,4249.230957,4124.102539,4078.974365,340.000000,4.000000,,,,0.000000,4.000000,4.000000,4.000000,4.000000,4.000000,4.000000,4.000000,4.000000,4.000000,4.000000,2.000000,4.000000,4.000000,2.000000,66.666664
1600979699.320088,122.000000,0.000000,3995.897461,4743.589844,4301.538574,4311.282227,4089.230713,4690.769043,4057.948730,3975.384521,4301.538574,4097.436035,4377.436035,4271.794922,4148.205078,4094.871826,431.000000,4.000000,,,,0.000000,4.000000,4.000000,4.000000,4.000000,4.000000,4.000000,4.000000,4.000000,4.000000,4.000000,2.000000,4.000000,4.000000,2.000000,66.666664
1600979699.327909,123.000000,0.000000,3999.487061,4749.230957,4310.769043,4315.897461,4103.589844,4684.615234,4049.230713,3974.871826,4297.948730,4129.230957,4385.128418,4275.384766,4153.333496,4105.641113,176.000000,4.000000,,,,0.000000,4.000000,4.000000,4.000000,4.000000,4.000000,4.000000,4.000000,4.000000,4.000000,4.000000,2.000000,4.000000,4.000000,2.000000,66.666664
1600979699.335829,124.000000,0.000000,3990.769287,4730.256348,4301.538574,4305.641113,4080.512939,4667.179688,4043.589844,3973.333252,4270.256348,4133.333496,4384.102539,4266.153809,4147.179688,4098.974121,294.000000,4.000000,,,,0.000000,4.000000,4.000000,4.000000,4.000000,4.000000,4.000000,4.000000,4.000000,4.000000,4.000000,2.000000,4.000000,4.000000,2.000000,66.666664
1600979699.343649,125.000000,0.000000,3986.153809,4720.000000,4291.794922,4304.615234,4080.000000,4684.102539,4047.692383,3967.692383,4266.153809,4114.871582,4377.436035,4259.487305,4144.102539,4088.718018,340.000000,4.000000,,,,0.000000,4.000000,4.000000,4.000000,4.000000,4.000000,4.000000,4.000000,4.000000,4.000000,4.000000,2.000000,4.000000,4.000000,2.000000,66.666664
1600979699.351569,126.000000,0.000000,3965.641113,4700.512695,4277.948730,4288.717773,4076.923096,4665.128418,4035.384521,3947.692383,4252.307617,4090.769287,4359.487305,4242.563965,4122.563965,4077.948730,431.000000,4.000000,,,,0.000000,4.000000,4.000000,4.000000,4.000000,4.000000,4.000000,4.000000,4.000000,4.000000,4.000000,2.000000,4.000000,4.000000,2.000000,66.666664
1600979699.359490,127.000000,0.000000,3960.512939,4694.358887,4280.512695,4283.077148,4066.153809,4638.974121,4035.384521,3952.820557,4247.179688,4086.153809,4357.436035,4241.025879,4118.974121,4079.487061,176.000000,4.000000,,,,0.000000,4.000000,4.000000,4.000000,4.000000,4.000000,4.000000,4.000000,4.000000,4.000000,4.000000,2.000000,4.000000,4.000000,2.000000,66.666664
1600979699.367311,128.000000,0.000000,3976.923096,4712.820313,4296.410156,4297.436035,4058.974365,4669.230957,4052.820557,3972.307617,4271.794922,4104.102539,4370.769043,4256.922852,4135.897461,4085.641113,294.000000,4.000000,,,,0.000000,4.000000,4.000000,4.000000,4.000000,4.000000,4.000000,4.000000,4.000000,4.000000,4.000000,2.000000,4.000000,4.000000,2.000000,66.666664
1600979699.375131,0.000000,0.000000,3979.487061,4717.436035,4296.410156,4303.077148,4053.846191,4706.153809,4065.128174,3972.820557,4289.230957,4108.717773,4371.282227,4257.436035,4140.000000,4083.589844,392.000000,4.000000,,,,0.000000,4.000000,4.000000,4.000000,4.000000,4.000000,4.000000,4.000000,4.000000,4.000000,4.000000,2.000000,4.000000,4.000000,2.000000,66.666664
1600979699.382852,1.000000,0.000000,3968.718018,4709.230957,4288.205078,4301.025879,4076.410156,4698.461426,4060.000000,3966.153809,4277.948730,4110.256348,4366.666504,4249.230957,4134.871582,4081.538574,431.000000,4.000000,,,,0.000000,4.000000,4.000000,4.000000,4.000000,4.000000,4.000000,4.000000,4.000000,4.000000,4.000000,2.000000,4.000000,4.000000,2.000000,66.666664
1600979699.390672,2.000000,0.000000,3964.102539,4714.871582,4289.230957,4304.102539,4106.666504,4682.051270,4048.718018,3964.102539,4269.743652,4118.461426,4369.743652,4250.256348,4137.436035,4084.102539,441.000000,4.000000,,,,0.000000,4.000000,4.000000,4.000000,4.000000,4.000000,4.000000,4.000000,4.000000,4.000000,4.000000,2.000000,4.000000,4.000000,2.000000,66.666664
1600979699.398392,3.000000,0.000000,3953.846191,4705.641113,4283.589844,4295.384766,4082.051270,4672.307617,4033.333252,3956.923096,4273.333496,4093.846191,4367.179688,4243.077148,4129.743652,4081.025635,449.000000,4.000000,,,,0.000000,4.000000,4.000000,4.000000,4.000000,4.000000,4.000000,4.000000,4.000000,4.000000,4.000000,2.000000,4.000000,4.000000,2.000000,66.666664
1600979699.406213,4.000000,0.000000,3944.615479,4690.769043,4274.358887,4283.077148,4052.820557,4663.077148,4027.179443,3963.589844,4275.897461,4090.769287,4365.641113,4233.846191,4123.077148,4075.384521,462.000000,4.000000,,,,0.000000,4.000000,4.000000,4.000000,4.000000,4.000000,4.000000,4.000000,4.000000,4.000000,4.000000,2.000000,4.000000,4.000000,2.000000,66.666664
1600979699.413933,5.000000,0.000000,3953.846191,4704.615234,4278.974121,4285.128418,4072.307617,4673.333496,4033.333252,3976.410156,4278.974121,4134.358887,4372.307617,4242.563965,4136.410156,4081.538574,437.000000,4.000000,,,,0.000000,4.000000,4.000000,4.000000,4.000000,4.000000,4.000000,4.000000,4.000000,4.000000,4.000000,2.000000,4.000000,4.000000,2.000000,66.666664
1600979699.421754,6.000000,0.000000,3951.281982,4710.256348,4272.820313,4283.077148,4072.820557,4678.461426,4025.128174,3956.923096,4261.538574,4105.641113,4366.666504,4240.512695,4130.256348,4081.025635,441.000000,4.000000,,,,0.000000,4.000000,4.000000,4.000000,4.000000,4.000000,4.000000,4.000000,4.000000,4.000000,4.000000,2.000000,4.000000,4.000000,2.000000,66.666664
1600979699.429474,7.000000,0.000000,3927.692383,4682.051270,4251.282227,4266.666504,4042.051270,4644.615234,4004.102539,3930.769287,4225.641113,4033.846191,4347.179688,4217.436035,4095.897461,4065.641113,388.000000,4.000000,,,,0.000000,4.000000,4.000000,4.000000,4.000000,4.000000,4.000000,4.000000,4.000000,4.000000,4.000000,2.000000,4.000000,4.000000,2.000000,66.666664
1600979699.437295,8.000000,0.000000,3938.461426,4693.333496,4262.563965,4279.487305,4050.769287,4642.051270,4018.461426,3952.307617,4253.846191,4075.384521,4353.333496,4225.128418,4103.077148,4069.743652,396.000000,4.000000,,,,0.000000,4.000000,4.000000,4.000000,4.000000,4.000000,4.000000,4.000000,4.000000,4.000000,4.000000,2.000000,4.000000,4.000000,2.000000,66.666664
1600979699.445015,9.000000,0.000000,3978.974365,4740.000000,4292.820313,4317.436035,4086.666748,4693.333496,4052.307617,3986.153809,4315.897461,4172.307617,4385.128418,4256.922852,4148.205078,4094.871826,397.000000,4.000000,,,,0.000000,4.000000,4.000000,4.000000,4.000000,4.000000,4.000000,4.000000,4.000000,4.000000,4.000000,2.000000,4.000000,4.000000,2.000000,66.666664
1600979699.452935,10.000000,0.000000,3976.410156,4731.282227,4286.153809,4310.769043,4101.538574,4704.615234,4047.692383,3977.948730,4292.307617,4162.051270,4390.769043,4253.846191,4150.769043,4094.358887,433.000000,4.000000,,,,0.000000,4.000000,4.000000,4.000000,4.000000,4.000000,4.000000,4.000000,4.000000,4.000000,4.000000,2.000000,4.000000,4.000000,2.000000,66.666664
1600979699.460756,11.000000,0.000000,3940.000000,4688.717773,4260.512695,4273.333496,4077.435791,4661.025879,4022.051270,3952.307617,4239.487305,4072.820557,4362.563965,4226.153809,4115.384766,4071.794922,176.000000,4.000000,,,,0.000000,4.000000,4.000000,4.000000,4.000000,4.000000,4.000000,4.000000,4.000000,4.000000,4.000000,2.000000,4.000000,4.000000,2.000000,66.666664
1600979699.468676,12.000000,0.000000,3941.538574,4690.256348,4267.179688,4282.563965,4054.871826,4662.563965,4026.153809,3949.230713,4260.000000,4054.871826,4353.333496,4228.205078,4111.794922,4071.794922,293.000000,4.000000,,,,0.000000,4.000000,4.000000,4.000000,4.000000,4.000000,4.000000,4.000000,4.000000,4.000000,4.000000,2.000000,4.000000,4.000000,2.000000,66.666664
1600979699.476496,13.000000,0.000000,3961.538574,4705.641113,4278.974121,4306.666504,4063.076904,4689.230957,4033.333252,3953.846191,4284.102539,4111.794922,4366.153809,4243.077148,4130.769043,4085.128174,338.000000,4.000000,,,,0.000000,4.000000,4.000000,4.000000,4.000000,4.000000,4.000000,4.000000,4.000000,4.000000,4.000000,2.000000,4.000000,4.000000,2.000000,66.666664
1600979699.484417,14.000000,0.000000,3959.487061,4699.487305,4272.307617,4297.436035,4081.025635,4685.128418,4027.692383,3955.384521,4269.230957,4130.769043,4370.256348,4242.563965,4132.820313,4085.641113,433.000000,4.000000,,,,0.000000,4.000000,4.000000,4.000000,4.000000,4.000000,4.000000,4.000000,4.000000,4.000000,4.000000,2.000000,4.000000,4.000000,2.000000,66.666664
1600979699.492237,15.000000,0.000000,3949.743652,4688.205078,4269.743652,4287.692383,4086.153809,4688.205078,4033.333252,3960.512939,4267.692383,4096.410156,4363.589844,4235.897461,4118.974121,4079.487061,176.000000,4.000000,,,,0.000000,4.000000,4.000000,4.000000,4.000000,4.000000,4.000000,4.000000,4.000000,4.000000,4.000000,2.000000,4.000000,4.000000,2.000000,66.666664
1600979699.500157,16.000000,0.000000,3941.538574,4674.358887,4266.153809,4287.179688,4074.358887,4683.589844,4032.820557,3961.025635,4272.307617,4088.205078,4357.948730,4233.846191,4110.769043,4075.897461,0.000000,4.000000,,,,0.000000,4.000000,4.000000,4.000000,4.000000,4.000000,4.000000,4.000000,4.000000,4.000000,4.000000,2.000000,4.000000,4.000000,2.000000,66.666664
1600979699.507978,17.000000,0.000000,3950.769287,4676.410156,4268.717773,4289.743652,4069.743652,4666.153809,4028.718018,3970.256348,4278.974121,4122.051270,4371.794922,4244.615234,4138.974121,4085.641113,0.000000,4.000000,,,,0.000000,4.000000,4.000000,4.000000,4.000000,4.000000,4.000000,4.000000,4.000000,4.000000,4.000000,2.000000,4.000000,4.000000,2.000000,66.666664
1600979699.515898,18.000000,0.000000,3971.281982,4693.846191,4282.051270,4296.922852,4074.358887,4681.538574,4041.025635,3987.692383,4307.692383,4139.487305,4390.769043,4260.000000,4176.410156,4101.025879,0.000000,4.000000,,,,0.000000,4.000000,4.000000,4.000000,4.000000,4.000000,4.000000,4.000000,4.000000,4.000000,4.000000,2.000000,4.000000,4.000000,2.000000,66.666664
1600979699.523718,19.000000,0.000000,3973.846191,4686.153809,4282.563965,4295.897461,4089.230713,4706.153809,4052.820557,3992.820557,4324.102539,4135.384766,4392.820313,4260.512695,4183.077148,4103.589844,0.000000,4.000000,,,,0.000000,4.000000,4.000000,4.000000,4.000000,4.000000,4.000000,4.000000,4.000000,4.000000,4.000000,2.000000,4.000000,4.000000,2.000000,66.666664
1600979699.531638,20.000000,0.000000,3948.205078,4654.358887,4263.589844,4275.897461,4090.256348,4680.000000,4037.948730,3977.948730,4289.230957,4115.384766,4382.051270,4245.641113,4167.179688,4094.871826,0.000000,4.000000,,,,0.000000,4.000000,4.000000,4.000000,4.000000,4.000000,4.000000,4.000000,4.000000,4.000000,4.000000,2.000000,4.000000,4.000000,2.000000,66.666664
1600979699.539459,21.000000,0.000000,3941.538574,4650.769043,4261.538574,4273.333496,4071.281982,4655.384766,4030.256348,3963.076904,4267.692383,4110.256348,4378.461426,4242.563965,4165.641113,4090.769287,0.000000,4.000000,,,,0.000000,4.000000,4.000000,4.000000,4.000000,4.000000,4.000000,4.000000,4.000000,4.000000,4.000000,2.000000,4.000000,4.000000,2.000000,66.666664
1600979699.547379,22.000000,0.000000,3966.153809,4667.179688,4278.974121,4290.769043,4070.769287,4681.538574,4044.102539,3971.281982,4301.538574,4138.461426,4386.153809,4255.384766,4175.897461,4095.897461,0.000000,4.000000,,,,0.000000,4.000000,4.000000,4.000000,4.000000,4.000000,4.000000,4.000000,4.000000,4.000000,4.000000,2.000000,4.000000,4.000000,2.000000,66.666664
1600979699.555199,23.000000,0.000000,3977.948730,4672.307617,4283.077148,4297.436035,4098.974121,4707.179688,4047.692383,3989.230713,4331.794922,4161.538574,4395.384766,4262.051270,4184.102539,4102.563965,0.000000,4.000000,,,,0.000000,4.000000,4.000000,4.000000,4.000000,4.000000,4.000000,4.000000,4.000000,4.000000,4.000000,2.000000,4.000000,4.000000,2.000000,66.666664
1600979699.562920,24.000000,0.000000,3954.871826,4657.436035,4266.666504,4283.077148,4098.974121,4683.589844,4029.230713,3975.384521,4307.179688,4138.461426,4387.692383,4248.205078,4175.384766,4097.948730,0.000000,4.000000,,,,0.000000,4.000000,4.000000,4.000000,4.000000,4.000000,4.000000,4.000000,4.000000,4.000000,4.000000,2.000000,4.000000,4.000000,2.000000,66.666664
1600979699.570740,25.000000,0.000000,3931.281982,4637.948730,4250.256348,4267.692383,4053.846191,4647.692383,4010.256348,3946.666748,4280.000000,4095.897461,4372.307617,4228.205078,4156.922852,4085.641113,0.000000,4.000000,,,,0.000000,4.000000,4.000000,4.000000,4.000000,4.000000,4.000000,4.000000,4.000000,4.000000,4.000000,2.000000,4.000000,4.000000,2.000000,66.666664
1600979699.578461,26.000000,0.000000,3945.128174,4642.051270,4257.436035,4272.307617,4051.281982,4655.384766,4014.871826,3957.435791,4306.666504,4086.153809,4377.948730,4233.846191,4163.077148,4090.769287,0.000000,4.000000,,,,0.000000,4.000000,4.000000,4.000000,4.000000,4.000000,4.000000,4.000000,4.000000,4.000000,4.000000,2.000000,4.000000,4.000000,2.000000,66.666664
1600979699.586281,27.000000,0.000000,3973.846191,4667.692383,4280.512695,4293.846191,4111.794922,4693.333496,4036.923096,3990.256348,4332.820313,4135.897461,4395.897461,4258.974121,4192.820313,4105.128418,0.000000,4.000000,,,,0.000000,4.000000,4.000000,4.000000,4.000000,4.000000,4.000000,4.000000,4.000000,4.000000,4.000000,2.000000,4.000000,4.000000,2.000000,66.666664
1600979699.594002,28.000000,0.000000,3977.948730,4679.487305,4285.641113,4298.974121,4137.948730,4702.051270,4047.179443,3995.897461,4315.384766,4181.538574,4395.384766,4266.153809,4193.333496,4101.538574,0.000000,4.000000,,,,0.000000,4.000000,4.000000,4.000000,4.000000,4.000000,4.000000,4.000000,4.000000,4.000000,4.000000,2.000000,4.000000,4.000000,2.000000,66.666664
1600979699.601822,29.000000,0.000000,3957.435791,4656.922852,4267.692383,4278.461426,4100.512695,4677.948730,4038.461426,3977.435791,4308.717773,4135.384766,4371.282227,4247.692383,4156.922852,4087.692383,0.000000,4.000000,,,,0.000000,4.000000,4.000000,4.000000,4.000000,4.000000,4.000000,4.000000,4.000000,4.000000,4.000000,2.000000,4.000000,4.000000,2.000000,66.666664
1600979699.609542,30.000000,0.000000,3943.589844,4634.871582,4254.871582,4267.179688,4069.743652,4663.077148,4025.641113,3961.538574,4318.974121,4077.435791,4358.461426,4233.333496,4138.974121,4082.564209,0.000000,4.000000,,,,0.000000,4.000000,4.000000,4.000000,4.000000,4.000000,4.000000,4.000000,4.000000,4.000000,4.000000,2.000000,4.000000,4.000000,2.000000,66.666664
1600979699.617363,31.000000,0.000000,3947.179443,4643.589844,4261.538574,4275.384766,4082.051270,4670.769043,4025.128174,3961.538574,4302.563965,4112.307617,4369.230957,4238.461426,4156.922852,4089.743652,0.000000,4.000000,,,,0.000000,4.000000,4.000000,4.000000,4.000000,4.000000,4.000000,4.000000,4.000000,4.000000,4.000000,2.000000,4.000000,4.000000,2.000000,66.666664
1600979699.625083,32.000000,0.000000,3957.948730,4663.077148,4274.358887,4285.641113,4105.128418,4686.666504,4040.512939,3974.871826,4305.128418,4148.205078,4378.461426,4249.743652,4173.333496,4099.487305,0.000000,4.000000,,,,0.000000,4.000000,4.000000,4.000000,4.000000,4.000000,4.000000,4.000000,4.000000,4.000000,4.000000,2.000000,4.000000,4.000000,2.000000,66.666664
1600979699.632904,33.000000,0.000000,3954.871826,4657.948730,4274.358887,4283.589844,4088.718018,4688.205078,4040.512939,3973.846191,4334.871582,4107.692383,4374.871582,4244.615234,4164.615234,4099.487305,0.000000,4.000000,,,,0.000000,4.000000,4.000000,4.000000,4.000000,4.000000,4.000000,4.000000,4.000000,4.000000,4.000000,2.000000,4.000000,4.000000,2.000000,66.666664
1600979699.640624,34.000000,0.000000,3940.512939,4640.000000,4263.589844,4273.333496,4063.589844,4670.256348,4017.948730,3956.410156,4316.922852,4104.615234,4375.384766,4233.333496,4150.769043,4089.230713,0.000000,4.000000,,,,0.000000,4.000000,4.000000,4.000000,4.000000,4.000000,4.000000,4.000000,4.000000,4.000000,4.000000,2.000000,4.000000,4.000000,2.000000,66.666664
1600979699.648544,35.000000,0.000000,3938.461426,4641.538574,4260.000000,4269.743652,4083.076904,4652.820313,4012.307617,3951.281982,4287.692383,4141.025879,4377.436035,4233.846191,4150.256348,4086.153809,0.000000,4.000000,,,,0.000000,4.000000,4.000000,4.000000,4.000000,4.000000,4.000000,4.000000,4.000000,4.000000,4.000000,2.000000,4.000000,4.000000,2.000000,66.666664
1600979699.656365,36.000000,0.000000,3946.666748,4654.871582,4267.692383,4278.974121,4101.538574,4659.487305,4026.666748,3961.025635,4317.948730,4117.948730,4376.922852,4239.487305,4155.384766,4090.769287,0.000000,4.000000,,,,0.000000,4.000000,4.000000,4.000000,4.000000,4.000000,4.000000,4.000000,4.000000,4.000000,4.000000,2.000000,4.000000,4.000000,2.000000,66.666664
1600979699.664285,37.000000,0.000000,3948.205078,4654.358887,4271.282227,4284.102539,4085.641113,4676.922852,4023.589844,3957.435791,4333.333496,4083.076904,4374.358887,4238.974121,4154.358887,4091.281982,0.000000,4.000000,,,,0.000000,4.000000,4.000000,4.000000,4.000000,4.000000,4.000000,4.000000,4.000000,4.000000,4.000000,2.000000,4.000000,4.000000,2.000000,66.666664
1600979699.672105,38.000000,0.000000,3941.538574,4643.077148,4264.102539,4274.871582,4081.025635,4675.384766,4008.205078,3941.538574,4302.051270,4093.846191,4364.615234,4236.410156,4143.589844,4085.641113,0.000000,4.000000,,,,0.000000,4.000000,4.000000,4.000000,4.000000,4.000000,4.000000,4.000000,4.000000,4.000000,4.000000,2.000000,4.000000,4.000000,2.000000,66.666664
1600979699.680026,39.000000,0.000000,3924.102539,4627.692383,4248.717773,4258.461426,4065.641113,4648.205078,3994.358887,3929.743652,4282.051270,4095.384521,4354.358887,4227.179688,4128.205078,4076.923096,0.000000,4.000000,,,,0.000000,4.000000,4.000000,4.000000,4.000000,4.000000,4.000000,4.000000,4.000000,4.000000,4.000000,2.000000,4.000000,4.000000,2.000000,66.666664
1600979699.687846,40.000000,0.000000,3932.820557,4640.512695,4259.487305,4271.794922,4066.666748,4654.358887,4007.692383,3948.718018,4307.179688,4124.102539,4374.358887,4236.410156,4146.666504,4082.564209,0.000000,4.000000,,,,0.000000,4.000000,4.000000,4.000000,4.000000,4.000000,4.000000,4.000000,4.000000,4.000000,4.000000,2.000000,4.000000,4.000000,2.000000,66.666664
1600979699.695766,41.000000,0.000000,3966.666748,4675.897461,4287.692383,4304.102539,4133.333496,4695.384766,4041.538574,3980.512939,4335.897461,4165.128418,4397.948730,4263.077148,4180.000000,4098.974121,0.000000,4.000000,,,,0.000000,4.000000,4.000000,4.000000,4.000000,4.000000,4.000000,4.000000,4.000000,4.000000,4.000000,2.000000,4.000000,4.000000,2.000000,66.666664
1600979699.703587,42.000000,0.000000,3970.769287,4684.102539,4289.230957,4306.153809,4161.025879,4704.615234,4049.743652,3977.435791,4336.922852,4118.461426,4390.769043,4262.563965,4172.820313,4101.025879,0.000000,4.000000,,,,0.000000,4.000000,4.000000,4.000000,4.000000,4.000000,4.000000,4.000000,4.000000,4.000000,4.000000,2.000000,4.000000,4.000000,2.000000,66.666664
1600979699.711507,43.000000,0.000000,3944.102539,4658.461426,4267.692383,4283.077148,4107.179688,4677.436035,4028.205078,3955.384521,4332.820313,4078.461426,4374.358887,4238.974121,4146.153809,4088.718018,0.000000,4.000000,,,,0.000000,4.000000,4.000000,4.000000,4.000000,4.000000,4.000000,4.000000,4.000000,4.000000,4.000000,2.000000,4.000000,4.000000,2.000000,66.666664
1600979699.719327,44.000000,0.000000,3931.281982,4638.974121,4255.897461,4270.769043,4089.743652,4661.025879,4016.923096,3954.871826,4327.692383,4127.692383,4372.820313,4231.282227,4139.487305,4081.025635,0.000000,4.000000,,,,0.000000,4.000000,4.000000,4.000000,4.000000,4.000000,4.000000,4.000000,4.000000,4.000000,4.000000,2.000000,4.000000,4.000000,2.000000,66.666664
1600979699.727248,45.000000,0.000000,3934.871826,4640.512695,4258.974121,4271.282227,4107.179688,4667.179688,4023.076904,3964.615479,4315.384766,4142.051270,4375.897461,4236.922852,4142.563965,4085.641113,0.000000,4.000000,,,,0.000000,4.000000,4.000000,4.000000,4.000000,4.000000,4.000000,4.000000,4.000000,4.000000,4.000000,2.000000,4.000000,4.000000,2.000000,66.666664
1600979699.735068,46.000000,0.000000,3935.897461,4649.743652,4260.512695,4271.282227,4090.256348,4675.384766,4022.564209,3957.948730,4316.922852,4082.051270,4371.794922,4237.436035,4140.512695,4085.641113,0.000000,4.000000,,,,0.000000,4.000000,4.000000,4.000000,4.000000,4.000000,4.000000,4.000000,4.000000,4.000000,4.000000,2.000000,4.000000,4.000000,2.000000,66.666664
1600979699.742788,47.000000,0.000000,3943.589844,4663.589844,4260.512695,4278.461426,4082.564209,4676.922852,4021.538574,3954.358887,4339.487305,4078.974365,4376.922852,4236.922852,4146.666504,4085.641113,0.000000,4.000000,,,,0.000000,4.000000,4.000000,4.000000,4.000000,4.000000,4.000000,4.000000,4.000000,4.000000,4.000000,2.000000,4.000000,4.000000,2.000000,66.666664
1600979699.750709,48.000000,0.000000,3950.769287,4669.230957,4261.025879,4285.641113,4111.282227,4672.307617,4026.153809,3960.512939,4341.538574,4132.820313,4382.051270,4236.410156,4154.358887,4089.230713,0.000000,4.000000,,,,0.000000,4.000000,4.000000,4.000000,4.000000,4.000000,4.000000,4.000000,4.000000,4.000000,4.000000,2.000000,4.000000,4.000000,2.000000,66.666664
1600979699.758529,49.000000,0.000000,3952.307617,4665.128418,4262.563965,4287.692383,4124.615234,4675.897461,4026.666748,3964.102539,4330.769043,4150.256348,4379.487305,4236.410156,4154.871582,4090.256348,0.000000,4.000000,,,,0.000000,4.000000,4.000000,4.000000,4.000000,4.000000,4.000000,4.000000,4.000000,4.000000,4.000000,2.000000,4.000000,4.000000,2.000000,66.666664
1600979699.766350,50.000000,0.000000,3947.692383,4657.436035,4259.487305,4277.436035,4085.641113,4674.871582,4017.435791,3958.974365,4325.128418,4116.922852,4373.333496,4231.794922,4143.589844,4084.615479,0.000000,4.000000,,,,0.000000,4.000000,4.000000,4.000000,4.000000,4.000000,4.000000,4.000000,4.000000,4.000000,4.000000,2.000000,4.000000,4.000000,2.000000,66.666664
1600979699.774071,51.000000,0.000000,3949.743652,4661.538574,4258.461426,4276.922852,4063.076904,4665.128418,4014.871826,3952.820557,4329.743652,4085.641113,4372.307617,4228.717773,4136.922852,4084.102539,0.000000,4.000000,,,,0.000000,4.000000,4.000000,4.000000,4.000000,4.000000,4.000000,4.000000,4.000000,4.000000,4.000000,2.000000,4.000000,4.000000,2.000000,66.666664
1600979699.781891,52.000000,0.000000,3948.205078,4657.436035,4256.922852,4282.563965,4081.538574,4656.410156,4010.769287,3944.102539,4331.282227,4089.743652,4368.717773,4224.615234,4137.948730,4085.128174,0.000000,4.000000,,,,0.000000,4.000000,4.000000,4.000000,4.000000,4.000000,4.000000,4.000000,4.000000,4.000000,4.000000,2.000000,4.000000,4.000000,2.000000,66.666664
1600979699.789611,53.000000,0.000000,3941.538574,4643.589844,4253.846191,4275.897461,4078.461426,4653.333496,4005.641113,3945.128174,4329.743652,4114.358887,4363.589844,4223.589844,4136.922852,4082.051270,0.000000,4.000000,,,,0.000000,4.000000,4.000000,4.000000,4.000000,4.000000,4.000000,4.000000,4.000000,4.000000,4.000000,2.000000,4.000000,4.000000,2.000000,66.666664
1600979699.797432,54.000000,0.000000,3952.820557,4658.974121,4264.615234,4280.512695,4069.743652,4675.384766,4020.000000,3962.564209,4343.077148,4121.025879,4366.666504,4235.897461,4140.512695,4088.205078,0.000000,4.000000,,,,0.000000,4.000000,4.000000,4.000000,4.000000,4.000000,4.000000,4.000000,4.000000,4.000000,4.000000,2.000000,4.000000,4.000000,2.000000,66.666664
1600979699.805152,55.000000,0.000000,3954.871826,4672.820313,4268.717773,4288.717773,4091.281982,4687.692383,4024.102539,3961.538574,4356.922852,4114.358887,4363.077148,4240.000000,4138.974121,4088.718018,0.000000,4.000000,,,,0.000000,4.000000,4.000000,4.000000,4.000000,4.000000,4.000000,4.000000,4.000000,4.000000,4.000000,2.000000,4.000000,4.000000,2.000000,66.666664
1600979699.813072,56.000000,0.000000,3933.333252,4649.230957,4251.282227,4273.333496,4097.436035,4655.897461,3998.974365,3946.153809,4331.282227,4126.666504,4358.974121,4227.692383,4128.205078,4078.461426,0.000000,4.000000,,,,0.000000,4.000000,4.000000,4.000000,4.000000,4.000000,4.000000,4.000000,4.000000,4.000000,4.000000,2.000000,4.000000,4.000000,2.000000,66.666664
1600979699.820893,57.000000,0.000000,3925.128174,4636.410156,4244.615234,4262.563965,4077.948730,4642.563965,3997.948730,3946.153809,4300.512695,4109.230957,4362.051270,4223.589844,4125.128418,4076.923096,0.000000,4.000000,,,,0.000000,4.000000,4.000000,4.000000,4.000000,4.000000,4.000000,4.000000,4.000000,4.000000,4.000000,2.000000,4.000000,4.000000,2.000000,66.666664
1600979699.828713,58.000000,0.000000,3928.718018,4642.563965,4250.256348,4264.615234,4058.461426,4662.051270,4015.384521,3940.512939,4315.384766,4063.076904,4351.794922,4224.102539,4118.974121,4077.435791,0.000000,4.000000,,,,0.000000,4.000000,4.000000,4.000000,4.000000,4.000000,4.000000,4.000000,4.000000,4.000000,4.000000,2.000000,4.000000,4.000000,2.000000,66.666664
1600979699.836434,59.000000,0.000000,3933.333252,4647.692383,4256.922852,4272.307617,4050.256348,4669.743652,4015.384521,3936.923096,4349.230957,4071.281982,4348.205078,4222.051270,4117.948730,4076.923096,0.000000,4.000000,,,,0.000000,4.000000,4.000000,4.000000,4.000000,4.000000,4.000000,4.000000,4.000000,4.000000,4.000000,2.000000,4.000000,4.000000,2.000000,66.666664
1600979699.844354,60.000000,0.000000,3943.589844,4659.487305,4263.589844,4284.102539,4075.897461,4670.769043,4005.641113,3950.769287,4354.358887,4130.769043,4366.666504,4229.743652,4133.846191,4084.102539,0.000000,4.000000,,,,0.000000,4.000000,4.000000,4.000000,4.000000,4.000000,4.000000,4.000000,4.000000,4.000000,4.000000,2.000000,4.000000,4.000000,2.000000,66.666664
1600979699.852174,61.000000,0.000000,3940.512939,4659.487305,4255.897461,4279.487305,4102.563965,4659.487305,3993.333252,3944.615479,4314.358887,4143.589844,4367.692383,4231.282227,4133.333496,4083.589844,0.000000,4.000000,,,,0.000000,4.000000,4.000000,4.000000,4.000000,4.000000,4.000000,4.000000,4.000000,4.000000,4.000000,2.000000,4.000000,4.000000,2.000000,66.666664
1600979699.860095,62.000000,0.000000,3928.718018,4644.102539,4245.641113,4265.128418,4077.948730,4641.538574,3988.718018,3930.769287,4291.794922,4071.281982,4347.179688,4218.461426,4118.974121,4072.820557,0.000000,4.000000,,,,0.000000,4.000000,4.000000,4.000000,4.000000,4.000000,4.000000,4.000000,4.000000,4.000000,4.000000,2.000000,4.000000,4.000000,2.000000,66.666664
1600979699.867915,63.000000,0.000000,3935.384521,4641.538574,4251.794922,4268.717773,4047.692383,4648.205078,4002.051270,3945.641113,4325.641113,4033.333252,4347.179688,4214.871582,4123.589844,4074.871826,0.000000,4.000000,,,,0.000000,4.000000,4.000000,4.000000,4.000000,4.000000,4.000000,4.000000,4.000000,4.000000,4.000000,2.000000,4.000000,4.000000,2.000000,66.666664
1600979699.875835,64.000000,0.000000,3947.179443,4653.333496,4257.436035,4276.922852,4060.000000,4668.205078,4013.333252,3959.487061,4360.512695,4107.692383,4365.641113,4222.563965,4134.358887,4082.564209,396.000000,4.000000,,,,0.000000,4.000000,4.000000,4.000000,4.000000,4.000000,4.000000,4.000000,4.000000,4.000000,4.000000,2.000000,4.000000,4.000000,2.000000,66.666664
1600979699.883656,65.000000,0.000000,3944.102539,4657.436035,4252.307617,4274.871582,4086.153809,4664.102539,4006.666748,3949.743652,4344.102539,4176.410156,4367.179688,4224.102539,4128.717773,4077.948730,433.000000,4.000000,,,,0.000000,4.000000,4.000000,4.000000,4.000000,4.000000,4.000000,4.000000,4.000000,4.000000,4.000000,2.000000,4.000000,4.000000,2.000000,66.666664
1600979699.891576,66.000000,0.000000,3946.153809,4656.410156,4257.436035,4282.563965,4087.692383,4653.333496,4004.102539,3946.666748,4309.743652,4127.179688,4359.487305,4223.077148,4125.641113,4076.410156,444.000000,4.000000,,,,0.000000,4.000000,4.000000,4.000000,4.000000,4.000000,4.000000,4.000000,4.000000,4.000000,4.000000,2.000000,4.000000,4.000000,2.000000,66.666664
1600979699.899396,67.000000,0.000000,3947.179443,4651.282227,4261.538574,4279.487305,4048.205078,4651.282227,4005.128174,3944.615479,4310.256348,4052.307617,4355.384766,4221.025879,4123.077148,4079.487061,454.000000,4.000000,,,,0.000000,4.000000,4.000000,4.000000,4.000000,4.000000,4.000000,4.000000,4.000000,4.000000,4.000000,2.000000,4.000000,4.000000,2.000000,66.666664
1600979699.907117,68.000000,0.000000,3944.102539,4657.436035,4254.358887,4271.794922,4038.974365,4664.102539,4006.153809,3936.923096,4340.512695,4079.487061,4357.948730,4223.077148,4123.589844,4080.512939,467.000000,4.000000,,,,0.000000,4.000000,4.000000,4.000000,4.000000,4.000000,4.000000,4.000000,4.000000,4.000000,4.000000,2.000000,4.000000,4.000000,2.000000,66.666664
