title:your record name, start timestamp:1600453867.409019, stop timestamp:1600453897.413630, headset type:EPOC, headset serial:53108521, headset firmware:1e00, subject name:alzaabi.su, channels:158, sampling rate:eeg_128;mot_128;pm_0.1;pow_8, samples:3838      , version:2.0
Timestamp,EEG.Counter,EEG.Interpolated,EEG.AF3,EEG.F7,EEG.F3,EEG.FC5,EEG.T7,EEG.P7,EEG.O1,EEG.O2,EEG.P8,EEG.T8,EEG.FC6,EEG.F4,EEG.F8,EEG.AF4,EEG.RawCq,EEG.Battery,MarkerIndex,MarkerType,MarkerValueInt,EEG.MarkerHardware,CQ.AF3,CQ.F7,CQ.F3,CQ.FC5,CQ.T7,CQ.P7,CQ.O1,CQ.O2,CQ.P8,CQ.T8,CQ.FC6,CQ.F4,CQ.F8,CQ.AF4,CQ.Overall,MOT.CounterMems,MOT.InterpolatedMems,MOT.GyroX,MOT.GyroY,PM.AuditoryAttention.IsActive,PM.AuditoryAttention.Scaled,PM.AuditoryAttention.Raw,PM.AuditoryAttention.Min,PM.AuditoryAttention.Max,PM.VisualAttention.IsActive,PM.VisualAttention.Scaled,PM.VisualAttention.Raw,PM.VisualAttention.Min,PM.VisualAttention.Max,PM.CognitiveStress.IsActive,PM.CognitiveStress.Scaled,PM.CognitiveStress.Raw,PM.CognitiveStress.Min,PM.CognitiveStress.Max,PM.Engagement.IsActive,PM.Engagement.Scaled,PM.Engagement.Raw,PM.Engagement.Min,PM.Engagement.Max,PM.Excitement.IsActive,PM.Excitement.Scaled,PM.Excitement.Raw,PM.Excitement.Min,PM.Excitement.Max,PM.LongTermExcitement,PM.Stress.IsActive,PM.Stress.Scaled,PM.Stress.Raw,PM.Stress.Min,PM.Stress.Max,PM.Relaxation.IsActive,PM.Relaxation.Scaled,PM.Relaxation.Raw,PM.Relaxation.Min,PM.Relaxation.Max,PM.Interest.IsActive,PM.Interest.Scaled,PM.Interest.Raw,PM.Interest.Min,PM.Interest.Max,PM.Focus.IsActive,PM.Focus.Scaled,PM.Focus.Raw,PM.Focus.Min,PM.Focus.Max,POW.AF3.Theta,POW.AF3.Alpha,POW.AF3.BetaL,POW.AF3.BetaH,POW.AF3.Gamma,POW.F7.Theta,POW.F7.Alpha,POW.F7.BetaL,POW.F7.BetaH,POW.F7.Gamma,POW.F3.Theta,POW.F3.Alpha,POW.F3.BetaL,POW.F3.BetaH,POW.F3.Gamma,POW.FC5.Theta,POW.FC5.Alpha,POW.FC5.BetaL,POW.FC5.BetaH,POW.FC5.Gamma,POW.T7.Theta,POW.T7.Alpha,POW.T7.BetaL,POW.T7.BetaH,POW.T7.Gamma,POW.P7.Theta,POW.P7.Alpha,POW.P7.BetaL,POW.P7.BetaH,POW.P7.Gamma,POW.O1.Theta,POW.O1.Alpha,POW.O1.BetaL,POW.O1.BetaH,POW.O1.Gamma,POW.O2.Theta,POW.O2.Alpha,POW.O2.BetaL,POW.O2.BetaH,POW.O2.Gamma,POW.P8.Theta,POW.P8.Alpha,POW.P8.BetaL,POW.P8.BetaH,POW.P8.Gamma,POW.T8.Theta,POW.T8.Alpha,POW.T8.BetaL,POW.T8.BetaH,POW.T8.Gamma,POW.FC6.Theta,POW.FC6.Alpha,POW.FC6.BetaL,POW.FC6.BetaH,POW.FC6.Gamma,POW.F4.Theta,POW.F4.Alpha,POW.F4.BetaL,POW.F4.BetaH,POW.F4.Gamma,POW.F8.Theta,POW.F8.Alpha,POW.F8.BetaL,POW.F8.BetaH,POW.F8.Gamma,POW.AF4.Theta,POW.AF4.Alpha,POW.AF4.BetaL,POW.AF4.BetaH,POW.AF4.Gamma
1600453867.409019,11.000000,0.000000,3929.743652,4693.333496,4237.948730,4311.794922,4074.871826,4681.538574,4061.025635,3944.102539,4363.077148,4097.948730,4314.871582,4251.794922,4168.205078,4109.230957,374.000000,4.000000,,,,0.000000,4.000000,4.000000,4.000000,4.000000,4.000000,4.000000,4.000000,4.000000,4.000000,4.000000,4.000000,4.000000,4.000000,4.000000,100.000000,11.000000,0.000000,1670.000000,1703.000000,,,,,,,,,,,,,,,,,,,,,,,,,,,,,,,,,,,,,,,,,,,,,,,,,,,,,,,,,,,,,,,,,,,,,,,,,,,,,,,,,,,,,,,,,,,,,,,,,,,,,,,,,,,,,,,,,,,,
1600453867.416939,12.000000,0.000000,3941.025635,4698.974121,4246.666504,4322.563965,4083.589844,4672.307617,4047.692383,3923.589844,4356.922852,4112.820313,4321.025879,4259.487305,4175.384766,4115.897461,371.000000,4.000000,,,,0.000000,4.000000,4.000000,4.000000,4.000000,4.000000,4.000000,4.000000,4.000000,4.000000,4.000000,4.000000,4.000000,4.000000,4.000000,100.000000,12.000000,0.000000,1671.000000,1704.000000,,,,,,,,,,,,,,,,,,,,,,,,,,,,,,,,,,,,,,,,,,,,,,,,,,,,,,,,,,,,,,,,,,,,,,,,,,,,,,,,,,,,,,,,,,,,,,,,,,,,,,,,,,,,,,,,,,,,
1600453867.424758,13.000000,0.000000,3951.794922,4706.666504,4253.333496,4326.153809,4088.205078,4691.794922,4051.794922,3935.897461,4363.589844,4139.487305,4331.282227,4271.282227,4186.666504,4125.128418,367.000000,4.000000,,,,0.000000,4.000000,4.000000,4.000000,4.000000,4.000000,4.000000,4.000000,4.000000,4.000000,4.000000,4.000000,4.000000,4.000000,4.000000,100.000000,13.000000,0.000000,1670.000000,1703.000000,,,,,,,,,,,,,,,,,,,,,,,,,,,,,,,,,,,,,,,,,,,,,,,,,,,,,,,,,,,,,,,,,,,,,,,,,,,,,,,,,,,,,,,,,,,,,,,,,,,,,,,,,,,,,,,,,,,,
1600453867.432678,14.000000,0.000000,3952.820557,4708.205078,4253.333496,4325.128418,4102.563965,4715.897461,4073.333252,3966.666748,4391.794922,4128.717773,4326.153809,4269.743652,4180.512695,4124.615234,400.000000,4.000000,,,,0.000000,4.000000,4.000000,4.000000,4.000000,4.000000,4.000000,4.000000,4.000000,4.000000,4.000000,4.000000,4.000000,4.000000,4.000000,100.000000,14.000000,0.000000,1672.000000,1703.000000,,,,,,,,,,,,,,,,,,,,,,,,,,,,,,,,,,,,,,,,,,,,,,,,,,,,,,,,,,,,,,,,,,,,,,,,,,,,,,,,,,,,,,,,,,,,,,,,,,,,,,,,,,,,,,,,,,,,
1600453867.440498,15.000000,0.000000,3941.538574,4702.051270,4243.077148,4318.974121,4087.179443,4695.897461,4064.615479,3940.512939,4382.051270,4105.128418,4305.128418,4251.282227,4161.025879,4108.717773,374.000000,4.000000,,,,0.000000,4.000000,4.000000,4.000000,4.000000,4.000000,4.000000,4.000000,4.000000,4.000000,4.000000,4.000000,4.000000,4.000000,4.000000,100.000000,15.000000,0.000000,1671.000000,1701.000000,,,,,,,,,,,,,,,,,,,,,,,,,,,,,,,,,,,,,,,,,,,,,,,,,,,,,,,,,,,,,,,,,,,,,,,,,,,,,,,,,,,,,,,,,,,,,,,,,,,,,,,,,,,,,,,,,,,,
1600453867.448418,16.000000,0.000000,3940.512939,4696.922852,4241.025879,4313.846191,4070.769287,4682.563965,4055.384521,3930.769287,4370.769043,4115.384766,4306.666504,4249.230957,4163.589844,4106.153809,0.000000,4.000000,,,,0.000000,4.000000,4.000000,4.000000,4.000000,4.000000,4.000000,4.000000,4.000000,4.000000,4.000000,4.000000,4.000000,4.000000,4.000000,100.000000,16.000000,0.000000,1672.000000,1700.000000,,,,,,,,,,,,,,,,,,,,,,,,,,,,,,,,,,,,,,,,,,,,,,,,,,,,,,,,,,,,,,,,,,,,,,,,,,,,,,,,,,,,,,,,,,,,,,,,,,,,,,,,,,,,,,,,,,,,
1600453867.456238,17.000000,0.000000,3951.281982,4699.487305,4251.282227,4318.974121,4083.589844,4705.128418,4070.769287,3967.179443,4390.256348,4123.589844,4321.025879,4261.025879,4174.871582,4118.974121,0.000000,4.000000,,,,0.000000,4.000000,4.000000,4.000000,4.000000,4.000000,4.000000,4.000000,4.000000,4.000000,4.000000,4.000000,4.000000,4.000000,4.000000,100.000000,17.000000,0.000000,1673.000000,1697.000000,,,,,,,,,,,,,,,,,,,,,,,,,,,,,,,,,,,,,,,,,,,,,,,,,,,,,,,,,,,,,,,,,,,,,,,,,,,,,,,,,,,,,,,,,,,,,,,,,,,,,,,,,,,,,,,,,,,,
1600453867.464158,18.000000,0.000000,3962.051270,4716.922852,4259.487305,4334.871582,4103.589844,4713.333496,4071.281982,3957.948730,4382.563965,4120.000000,4324.615234,4266.666504,4178.974121,4128.717773,0.000000,4.000000,,,,0.000000,4.000000,4.000000,4.000000,4.000000,4.000000,4.000000,4.000000,4.000000,4.000000,4.000000,4.000000,4.000000,4.000000,4.000000,100.000000,18.000000,0.000000,1672.000000,1696.000000,,,,,,,,,,,,,,,,,,,,,,,,,,,,,,,,,,,,,,,,,,,,,,,,,,,,,,,,,,,,,,,,,,,,,,,,,,,,,,,,,,,,,,,,,,,,,,,,,,,,,,,,,,,,,,,,,,,,
1600453867.471978,19.000000,0.000000,3962.051270,4720.000000,4254.871582,4334.871582,4091.794922,4692.820313,4049.743652,3916.923096,4351.794922,4120.000000,4317.948730,4262.051270,4176.922852,4129.230957,0.000000,4.000000,,,,0.000000,4.000000,4.000000,4.000000,4.000000,4.000000,4.000000,4.000000,4.000000,4.000000,4.000000,4.000000,4.000000,4.000000,4.000000,100.000000,19.000000,0.000000,1673.000000,1696.000000,,,,,,,,,,,,,,,,,,,,,,,,,,,,,,,,,,,,,,,,,,,,,,,,,,,,,,,,,,,,,,,,,,,,,,,,,,,,,,,,,,,,,,,,,,,,,,,,,,,,,,,,,,,,,,,,,,,,
1600453867.479897,20.000000,0.000000,3958.974365,4704.615234,4251.282227,4323.589844,4074.871826,4688.205078,4050.769287,3930.256348,4364.102539,4125.128418,4314.871582,4259.487305,4170.256348,4124.615234,0.000000,4.000000,,,,0.000000,4.000000,4.000000,4.000000,4.000000,4.000000,4.000000,4.000000,4.000000,4.000000,4.000000,4.000000,4.000000,4.000000,4.000000,100.000000,20.000000,0.000000,1672.000000,1696.000000,,,,,,,,,,,,,,,,,,,,,,,,,,,,,,,,,,,,,,,,,,,,,,,,,,,,,,,,,,,,,,,,,,,,,,,,,,,,,,,,,,,,,,,,,,,,,,,,,,,,,,,,,,,,,,,,,,,,
1600453867.487717,21.000000,0.000000,3951.281982,4697.436035,4246.153809,4317.436035,4085.641113,4688.717773,4058.461426,3945.128174,4376.922852,4124.102539,4313.333496,4255.384766,4160.000000,4114.871582,0.000000,4.000000,,,,0.000000,4.000000,4.000000,4.000000,4.000000,4.000000,4.000000,4.000000,4.000000,4.000000,4.000000,4.000000,4.000000,4.000000,4.000000,100.000000,21.000000,0.000000,1672.000000,1696.000000,,,,,,,,,,,,,,,,,,,,,,,,,,,,,,,,,,,,,,,,,,,,,,,,,,,,,,,,,,,,,,,,,,,,,,,,,,,,,,,,,,,,,,,,,,,,,,,,,,,,,,,,,,,,,,,,,,,,
1600453867.495437,22.000000,0.000000,3949.743652,4707.692383,4247.179688,4325.128418,4095.897461,4680.512695,4049.743652,3929.230713,4364.102539,4122.563965,4316.410156,4256.922852,4163.077148,4113.846191,0.000000,4.000000,,,,0.000000,4.000000,4.000000,4.000000,4.000000,4.000000,4.000000,4.000000,4.000000,4.000000,4.000000,4.000000,4.000000,4.000000,4.000000,100.000000,22.000000,0.000000,1672.000000,1694.000000,,,,,,,,,,,,,,,,,,,,,,,,,,,,,,,,,,,,,,,,,,,,,,,,,,,,,,,,,,,,,,,,,,,,,,,,,,,,,,,,,,,,,,,,,,,,,,,,,,,,,,,,,,,,,,,,,,,,
1600453867.503257,23.000000,0.000000,3956.410156,4710.256348,4256.410156,4328.205078,4082.564209,4676.410156,4047.179443,3935.384521,4369.743652,4131.794922,4318.974121,4263.077148,4171.282227,4123.077148,0.000000,4.000000,,,,0.000000,4.000000,4.000000,4.000000,4.000000,4.000000,4.000000,4.000000,4.000000,4.000000,4.000000,4.000000,4.000000,4.000000,4.000000,100.000000,23.000000,0.000000,1671.000000,1693.000000,,,,,,,,,,,,,,,,,,,,,,,,,,,,,,,,,,,,,,,,,,,,,,,29.926962,1.977426,1.129843,0.587068,0.407040,15.246655,2.095354,0.831196,0.710889,0.384775,5.636114,0.916242,0.426789,0.338406,0.177169,4.497139,1.147295,0.233967,0.414363,0.181104,2.496453,1.185304,0.523693,0.951876,1.301983,1.564156,0.504425,0.656536,2.358703,2.349944,2.882344,0.706001,0.660695,1.167035,0.759350,2.148432,1.586385,1.899727,1.155800,1.237380,1.705843,0.994706,3.813628,3.481677,4.893836,4.422494,1.481941,0.613491,2.472915,2.177098,5.220551,0.799438,0.392069,0.452694,0.330446,7.403208,0.964345,0.303024,0.378908,0.305132,15.887785,1.782143,0.609561,0.742713,0.454805,27.916735,1.873283,0.911503,0.451308,0.333247
1600453867.510977,24.000000,0.000000,3954.871826,4702.051270,4255.897461,4318.461426,4080.512939,4682.563965,4053.846191,3949.743652,4383.077148,4129.743652,4313.846191,4260.512695,4165.641113,4122.563965,0.000000,4.000000,,,,0.000000,4.000000,4.000000,4.000000,4.000000,4.000000,4.000000,4.000000,4.000000,4.000000,4.000000,4.000000,4.000000,4.000000,4.000000,100.000000,24.000000,0.000000,1672.000000,1692.000000,,,,,,,,,,,,,,,,,,,,,,,,,,,,,,,,,,,,,,,,,,,,,,,,,,,,,,,,,,,,,,,,,,,,,,,,,,,,,,,,,,,,,,,,,,,,,,,,,,,,,,,,,,,,,,,,,,,,
1600453867.518797,25.000000,0.000000,3950.769287,4704.102539,4250.256348,4317.948730,4094.871826,4702.051270,4064.102539,3948.205078,4382.563965,4119.487305,4312.820313,4260.000000,4163.077148,4117.948730,0.000000,4.000000,,,,0.000000,4.000000,4.000000,4.000000,4.000000,4.000000,4.000000,4.000000,4.000000,4.000000,4.000000,4.000000,4.000000,4.000000,4.000000,100.000000,25.000000,0.000000,1671.000000,1691.000000,,,,,,,,,,,,,,,,,,,,,,,,,,,,,,,,,,,,,,,,,,,,,,,,,,,,,,,,,,,,,,,,,,,,,,,,,,,,,,,,,,,,,,,,,,,,,,,,,,,,,,,,,,,,,,,,,,,,
1600453867.526517,26.000000,0.000000,3953.846191,4708.717773,4253.333496,4327.179688,4095.384521,4712.307617,4070.769287,3950.256348,4380.512695,4110.769043,4318.461426,4264.615234,4170.256348,4121.538574,0.000000,4.000000,,,,0.000000,4.000000,4.000000,4.000000,4.000000,4.000000,4.000000,4.000000,4.000000,4.000000,4.000000,4.000000,4.000000,4.000000,4.000000,100.000000,26.000000,0.000000,1671.000000,1690.000000,,,,,,,,,,,,,,,,,,,,,,,,,,,,,,,,,,,,,,,,,,,,,,,,,,,,,,,,,,,,,,,,,,,,,,,,,,,,,,,,,,,,,,,,,,,,,,,,,,,,,,,,,,,,,,,,,,,,
1600453867.534337,27.000000,0.000000,3960.000000,4705.128418,4258.974121,4328.717773,4091.281982,4696.410156,4067.179443,3950.256348,4371.282227,4103.077148,4323.589844,4267.692383,4174.358887,4127.692383,0.000000,4.000000,,,,0.000000,4.000000,4.000000,4.000000,4.000000,4.000000,4.000000,4.000000,4.000000,4.000000,4.000000,4.000000,4.000000,4.000000,4.000000,100.000000,27.000000,0.000000,1670.000000,1689.000000,,,,,,,,,,,,,,,,,,,,,,,,,,,,,,,,,,,,,,,,,,,,,,,,,,,,,,,,,,,,,,,,,,,,,,,,,,,,,,,,,,,,,,,,,,,,,,,,,,,,,,,,,,,,,,,,,,,,
1600453867.542057,28.000000,0.000000,3956.410156,4700.512695,4257.436035,4320.512695,4086.666748,4683.589844,4056.410156,3941.538574,4352.820313,4105.128418,4324.102539,4265.641113,4170.769043,4128.717773,0.000000,4.000000,,,,0.000000,4.000000,4.000000,4.000000,4.000000,4.000000,4.000000,4.000000,4.000000,4.000000,4.000000,4.000000,4.000000,4.000000,4.000000,100.000000,28.000000,0.000000,1668.000000,1688.000000,,,,,,,,,,,,,,,,,,,,,,,,,,,,,,,,,,,,,,,,,,,,,,,,,,,,,,,,,,,,,,,,,,,,,,,,,,,,,,,,,,,,,,,,,,,,,,,,,,,,,,,,,,,,,,,,,,,,
1600453867.549877,29.000000,0.000000,3954.871826,4706.666504,4259.487305,4321.538574,4085.128174,4696.410156,4056.410156,3945.128174,4370.256348,4127.179688,4322.563965,4265.641113,4170.769043,4130.256348,0.000000,4.000000,,,,0.000000,4.000000,4.000000,4.000000,4.000000,4.000000,4.000000,4.000000,4.000000,4.000000,4.000000,4.000000,4.000000,4.000000,4.000000,100.000000,29.000000,0.000000,1668.000000,1688.000000,,,,,,,,,,,,,,,,,,,,,,,,,,,,,,,,,,,,,,,,,,,,,,,,,,,,,,,,,,,,,,,,,,,,,,,,,,,,,,,,,,,,,,,,,,,,,,,,,,,,,,,,,,,,,,,,,,,,
1600453867.557597,30.000000,0.000000,3960.512939,4714.871582,4263.077148,4330.769043,4100.512695,4707.179688,4063.589844,3952.307617,4396.410156,4145.641113,4324.102539,4270.769043,4174.358887,4133.846191,0.000000,4.000000,,,,0.000000,4.000000,4.000000,4.000000,4.000000,4.000000,4.000000,4.000000,4.000000,4.000000,4.000000,4.000000,4.000000,4.000000,4.000000,100.000000,30.000000,0.000000,1668.000000,1688.000000,,,,,,,,,,,,,,,,,,,,,,,,,,,,,,,,,,,,,,,,,,,,,,,,,,,,,,,,,,,,,,,,,,,,,,,,,,,,,,,,,,,,,,,,,,,,,,,,,,,,,,,,,,,,,,,,,,,,
1600453867.565417,31.000000,0.000000,3968.205078,4722.563965,4266.153809,4339.487305,4113.846191,4705.128418,4069.230713,3951.794922,4395.897461,4141.025879,4333.333496,4279.487305,4182.563965,4142.563965,0.000000,4.000000,,,,0.000000,4.000000,4.000000,4.000000,4.000000,4.000000,4.000000,4.000000,4.000000,4.000000,4.000000,4.000000,4.000000,4.000000,4.000000,100.000000,31.000000,0.000000,1668.000000,1688.000000,,,,,,,,,,,,,,,,,,,,,,,,,,,,,,,,,,,,,,,,,,,,,,,,,,,,,,,,,,,,,,,,,,,,,,,,,,,,,,,,,,,,,,,,,,,,,,,,,,,,,,,,,,,,,,,,,,,,
1600453867.573137,32.000000,0.000000,3962.564209,4718.461426,4262.563965,4334.358887,4098.974121,4692.820313,4067.179443,3953.846191,4383.077148,4128.717773,4332.307617,4273.846191,4183.077148,4142.051270,0.000000,4.000000,,,,0.000000,4.000000,4.000000,4.000000,4.000000,4.000000,4.000000,4.000000,4.000000,4.000000,4.000000,4.000000,4.000000,4.000000,4.000000,100.000000,32.000000,0.000000,1668.000000,1688.000000,,,,,,,,,,,,,,,,,,,,,,,,,,,,,,,,,,,,,,,,,,,,,,,,,,,,,,,,,,,,,,,,,,,,,,,,,,,,,,,,,,,,,,,,,,,,,,,,,,,,,,,,,,,,,,,,,,,,
1600453867.581057,33.000000,0.000000,3954.358887,4705.641113,4255.384766,4327.692383,4093.846191,4690.256348,4067.179443,3960.512939,4371.794922,4140.512695,4323.077148,4257.948730,4173.333496,4130.769043,0.000000,4.000000,,,,0.000000,4.000000,4.000000,4.000000,4.000000,4.000000,4.000000,4.000000,4.000000,4.000000,4.000000,4.000000,4.000000,4.000000,4.000000,100.000000,33.000000,0.000000,1669.000000,1688.000000,,,,,,,,,,,,,,,,,,,,,,,,,,,,,,,,,,,,,,,,,,,,,,,,,,,,,,,,,,,,,,,,,,,,,,,,,,,,,,,,,,,,,,,,,,,,,,,,,,,,,,,,,,,,,,,,,,,,
1600453867.588877,34.000000,0.000000,3954.358887,4700.000000,4252.307617,4327.179688,4093.333252,4700.512695,4065.128174,3948.718018,4367.692383,4150.256348,4320.000000,4255.384766,4165.128418,4125.128418,0.000000,4.000000,,,,0.000000,4.000000,4.000000,4.000000,4.000000,4.000000,4.000000,4.000000,4.000000,4.000000,4.000000,4.000000,4.000000,4.000000,4.000000,100.000000,34.000000,0.000000,1668.000000,1687.000000,,,,,,,,,,,,,,,,,,,,,,,,,,,,,,,,,,,,,,,,,,,,,,,,,,,,,,,,,,,,,,,,,,,,,,,,,,,,,,,,,,,,,,,,,,,,,,,,,,,,,,,,,,,,,,,,,,,,
1600453867.596797,35.000000,0.000000,3966.153809,4715.897461,4262.563965,4334.358887,4086.153809,4711.282227,4068.205078,3945.128174,4389.230957,4128.205078,4331.794922,4270.256348,4173.333496,4137.948730,0.000000,4.000000,,,,0.000000,4.000000,4.000000,4.000000,4.000000,4.000000,4.000000,4.000000,4.000000,4.000000,4.000000,4.000000,4.000000,4.000000,4.000000,100.000000,35.000000,0.000000,1668.000000,1688.000000,,,,,,,,,,,,,,,,,,,,,,,,,,,,,,,,,,,,,,,,,,,,,,,,,,,,,,,,,,,,,,,,,,,,,,,,,,,,,,,,,,,,,,,,,,,,,,,,,,,,,,,,,,,,,,,,,,,,
1600453867.604617,36.000000,0.000000,3963.589844,4715.897461,4260.000000,4327.179688,4084.615479,4698.461426,4064.615479,3954.358887,4400.000000,4104.102539,4325.641113,4268.205078,4168.205078,4132.307617,0.000000,4.000000,,,,0.000000,4.000000,4.000000,4.000000,4.000000,4.000000,4.000000,4.000000,4.000000,4.000000,4.000000,4.000000,4.000000,4.000000,4.000000,100.000000,36.000000,0.000000,1669.000000,1686.000000,,,,,,,,,,,,,,,,,,,,,,,,,,,,,,,,,,,,,,,,,,,,,,,,,,,,,,,,,,,,,,,,,,,,,,,,,,,,,,,,,,,,,,,,,,,,,,,,,,,,,,,,,,,,,,,,,,,,
1600453867.612537,37.000000,0.000000,3946.666748,4694.358887,4243.589844,4310.769043,4090.769287,4681.025879,4052.820557,3943.589844,4374.358887,4121.538574,4304.102539,4247.692383,4147.179688,4105.641113,0.000000,4.000000,,,,0.000000,4.000000,4.000000,4.000000,4.000000,4.000000,4.000000,4.000000,4.000000,4.000000,4.000000,4.000000,4.000000,4.000000,4.000000,100.000000,37.000000,0.000000,1668.000000,1687.000000,,,,,,,,,,,,,,,,,,,,,,,,,,,,,,,,,,,,,,,,,,,,,,,,,,,,,,,,,,,,,,,,,,,,,,,,,,,,,,,,,,,,,,,,,,,,,,,,,,,,,,,,,,,,,,,,,,,,
1600453867.620357,38.000000,0.000000,3945.128174,4692.307617,4240.512695,4314.358887,4091.794922,4685.641113,4048.718018,3927.692383,4356.410156,4133.846191,4300.512695,4240.512695,4141.025879,4096.410156,0.000000,4.000000,,,,0.000000,4.000000,4.000000,4.000000,4.000000,4.000000,4.000000,4.000000,4.000000,4.000000,4.000000,4.000000,4.000000,4.000000,4.000000,100.000000,38.000000,0.000000,1670.000000,1686.000000,,,,,,,,,,,,,,,,,,,,,,,,,,,,,,,,,,,,,,,,,,,,,,,,,,,,,,,,,,,,,,,,,,,,,,,,,,,,,,,,,,,,,,,,,,,,,,,,,,,,,,,,,,,,,,,,,,,,
1600453867.628276,39.000000,0.000000,3963.589844,4708.717773,4254.358887,4330.769043,4080.000000,4692.820313,4056.923096,3937.435791,4366.153809,4112.307617,4313.333496,4251.794922,4151.282227,4106.153809,0.000000,4.000000,,,,0.000000,4.000000,4.000000,4.000000,4.000000,4.000000,4.000000,4.000000,4.000000,4.000000,4.000000,4.000000,4.000000,4.000000,4.000000,100.000000,39.000000,0.000000,1668.000000,1684.000000,,,,,,,,,,,,,,,,,,,,,,,,,,,,,,,,,,,,,,,,,,,,,,,31.347195,1.953009,1.186721,0.645047,0.392418,16.197365,1.925892,0.803597,0.754782,0.394803,6.198915,1.022102,0.456378,0.355634,0.193394,4.827220,1.131472,0.276908,0.451643,0.197533,3.140500,1.131691,0.528954,0.952072,1.405682,2.047165,0.457792,0.623713,2.934690,2.454368,3.129016,0.565239,0.692451,1.225979,0.733540,2.566268,1.344268,2.184169,1.166252,1.253213,1.865486,0.890929,3.921819,3.525444,5.034377,4.846272,1.514413,0.633777,2.642655,2.332013,5.632810,0.826114,0.439212,0.426717,0.359303,8.200070,1.023380,0.351880,0.393477,0.323374,17.160074,2.014670,0.631469,0.757747,0.498967,30.344307,2.059150,0.966155,0.498434,0.357089
1600453867.636096,40.000000,0.000000,3966.153809,4701.538574,4255.897461,4327.692383,4076.923096,4689.743652,4060.000000,3947.692383,4373.846191,4097.948730,4310.256348,4256.410156,4149.743652,4099.487305,0.000000,4.000000,,,,0.000000,4.000000,4.000000,4.000000,4.000000,4.000000,4.000000,4.000000,4.000000,4.000000,4.000000,4.000000,4.000000,4.000000,4.000000,100.000000,40.000000,0.000000,1670.000000,1685.000000,,,,,,,,,,,,,,,,,,,,,,,,,,,,,,,,,,,,,,,,,,,,,,,,,,,,,,,,,,,,,,,,,,,,,,,,,,,,,,,,,,,,,,,,,,,,,,,,,,,,,,,,,,,,,,,,,,,,
1600453867.644016,41.000000,0.000000,3956.923096,4689.743652,4247.179688,4318.461426,4090.769287,4700.512695,4057.435791,3942.051270,4377.436035,4109.743652,4304.102539,4252.820313,4140.000000,4089.743652,0.000000,4.000000,,,,0.000000,4.000000,4.000000,4.000000,4.000000,4.000000,4.000000,4.000000,4.000000,4.000000,4.000000,4.000000,4.000000,4.000000,4.000000,100.000000,41.000000,0.000000,1670.000000,1683.000000,,,,,,,,,,,,,,,,,,,,,,,,,,,,,,,,,,,,,,,,,,,,,,,,,,,,,,,,,,,,,,,,,,,,,,,,,,,,,,,,,,,,,,,,,,,,,,,,,,,,,,,,,,,,,,,,,,,,
1600453867.651836,42.000000,0.000000,3966.153809,4706.153809,4248.717773,4324.102539,4098.974121,4703.589844,4055.384521,3941.538574,4374.358887,4131.282227,4312.307617,4251.794922,4142.563965,4098.461426,0.000000,4.000000,,,,0.000000,4.000000,4.000000,4.000000,4.000000,4.000000,4.000000,4.000000,4.000000,4.000000,4.000000,4.000000,4.000000,4.000000,4.000000,100.000000,42.000000,0.000000,1670.000000,1684.000000,,,,,,,,,,,,,,,,,,,,,,,,,,,,,,,,,,,,,,,,,,,,,,,,,,,,,,,,,,,,,,,,,,,,,,,,,,,,,,,,,,,,,,,,,,,,,,,,,,,,,,,,,,,,,,,,,,,,
1600453867.659756,43.000000,0.000000,3983.076904,4718.974121,4255.897461,4329.230957,4091.794922,4686.666504,4050.769287,3944.615479,4364.102539,4123.589844,4317.948730,4254.871582,4151.282227,4107.692383,0.000000,4.000000,,,,0.000000,4.000000,4.000000,4.000000,4.000000,4.000000,4.000000,4.000000,4.000000,4.000000,4.000000,4.000000,4.000000,4.000000,4.000000,100.000000,43.000000,0.000000,1670.000000,1685.000000,,,,,,,,,,,,,,,,,,,,,,,,,,,,,,,,,,,,,,,,,,,,,,,,,,,,,,,,,,,,,,,,,,,,,,,,,,,,,,,,,,,,,,,,,,,,,,,,,,,,,,,,,,,,,,,,,,,,
1600453867.667576,44.000000,0.000000,3994.358887,4723.589844,4263.077148,4332.820313,4095.384521,4694.358887,4057.435791,3945.128174,4364.102539,4101.025879,4322.563965,4265.128418,4162.563965,4117.436035,0.000000,4.000000,,,,0.000000,4.000000,4.000000,4.000000,4.000000,4.000000,4.000000,4.000000,4.000000,4.000000,4.000000,4.000000,4.000000,4.000000,4.000000,100.000000,44.000000,0.000000,1669.000000,1686.000000,,,,,,,,,,,,,,,,,,,,,,,,,,,,,,,,,,,,,,,,,,,,,,,,,,,,,,,,,,,,,,,,,,,,,,,,,,,,,,,,,,,,,,,,,,,,,,,,,,,,,,,,,,,,,,,,,,,,
1600453867.675296,45.000000,0.000000,4000.000000,4731.794922,4263.077148,4333.846191,4108.205078,4711.282227,4065.128174,3942.564209,4384.615234,4111.794922,4326.153809,4269.230957,4168.205078,4125.641113,0.000000,4.000000,,,,0.000000,4.000000,4.000000,4.000000,4.000000,4.000000,4.000000,4.000000,4.000000,4.000000,4.000000,4.000000,4.000000,4.000000,4.000000,100.000000,45.000000,0.000000,1670.000000,1686.000000,,,,,,,,,,,,,,,,,,,,,,,,,,,,,,,,,,,,,,,,,,,,,,,,,,,,,,,,,,,,,,,,,,,,,,,,,,,,,,,,,,,,,,,,,,,,,,,,,,,,,,,,,,,,,,,,,,,,
1600453867.683116,46.000000,0.000000,4000.512939,4736.410156,4262.051270,4333.333496,4103.589844,4709.743652,4067.692383,3941.538574,4388.717773,4152.307617,4328.717773,4268.717773,4174.358887,4127.179688,0.000000,4.000000,,,,0.000000,4.000000,4.000000,4.000000,4.000000,4.000000,4.000000,4.000000,4.000000,4.000000,4.000000,4.000000,4.000000,4.000000,4.000000,100.000000,46.000000,0.000000,1669.000000,1688.000000,,,,,,,,,,,,,,,,,,,,,,,,,,,,,,,,,,,,,,,,,,,,,,,,,,,,,,,,,,,,,,,,,,,,,,,,,,,,,,,,,,,,,,,,,,,,,,,,,,,,,,,,,,,,,,,,,,,,
1600453867.690836,47.000000,0.000000,3996.923096,4734.358887,4267.179688,4337.436035,4097.436035,4706.666504,4068.205078,3941.025635,4354.871582,4149.230957,4328.717773,4269.743652,4175.897461,4122.563965,0.000000,4.000000,,,,0.000000,4.000000,4.000000,4.000000,4.000000,4.000000,4.000000,4.000000,4.000000,4.000000,4.000000,4.000000,4.000000,4.000000,4.000000,100.000000,47.000000,0.000000,1670.000000,1687.000000,,,,,,,,,,,,,,,,,,,,,,,,,,,,,,,,,,,,,,,,,,,,,,,,,,,,,,,,,,,,,,,,,,,,,,,,,,,,,,,,,,,,,,,,,,,,,,,,,,,,,,,,,,,,,,,,,,,,
1600453867.698655,48.000000,0.000000,3994.871826,4729.743652,4267.692383,4338.974121,4107.179688,4703.077148,4067.179443,3945.641113,4356.922852,4115.384766,4325.641113,4268.717773,4169.230957,4116.410156,0.000000,4.000000,,,,0.000000,4.000000,4.000000,4.000000,4.000000,4.000000,4.000000,4.000000,4.000000,4.000000,4.000000,4.000000,4.000000,4.000000,4.000000,100.000000,48.000000,0.000000,1668.000000,1688.000000,,,,,,,,,,,,,,,,,,,,,,,,,,,,,,,,,,,,,,,,,,,,,,,,,,,,,,,,,,,,,,,,,,,,,,,,,,,,,,,,,,,,,,,,,,,,,,,,,,,,,,,,,,,,,,,,,,,,
1600453867.706375,49.000000,0.000000,3988.205078,4716.922852,4256.410156,4328.205078,4104.615234,4696.410156,4064.102539,3946.153809,4392.307617,4111.794922,4316.922852,4261.025879,4157.436035,4108.205078,0.000000,4.000000,,,,0.000000,4.000000,4.000000,4.000000,4.000000,4.000000,4.000000,4.000000,4.000000,4.000000,4.000000,4.000000,4.000000,4.000000,4.000000,100.000000,49.000000,0.000000,1669.000000,1688.000000,,,,,,,,,,,,,,,,,,,,,,,,,,,,,,,,,,,,,,,,,,,,,,,,,,,,,,,,,,,,,,,,,,,,,,,,,,,,,,,,,,,,,,,,,,,,,,,,,,,,,,,,,,,,,,,,,,,,
1600453867.714195,50.000000,0.000000,3988.205078,4715.384766,4255.384766,4326.666504,4096.922852,4701.025879,4068.205078,3950.256348,4391.794922,4122.563965,4315.897461,4262.051270,4159.487305,4111.794922,0.000000,4.000000,,,,0.000000,4.000000,4.000000,4.000000,4.000000,4.000000,4.000000,4.000000,4.000000,4.000000,4.000000,4.000000,4.000000,4.000000,4.000000,100.000000,50.000000,0.000000,1669.000000,1688.000000,,,,,,,,,,,,,,,,,,,,,,,,,,,,,,,,,,,,,,,,,,,,,,,,,,,,,,,,,,,,,,,,,,,,,,,,,,,,,,,,,,,,,,,,,,,,,,,,,,,,,,,,,,,,,,,,,,,,
1600453867.721915,51.000000,0.000000,3989.743652,4724.102539,4263.589844,4334.871582,4091.281982,4694.358887,4064.615479,3951.281982,4364.615234,4114.358887,4320.000000,4269.230957,4163.077148,4115.897461,0.000000,4.000000,,,,0.000000,4.000000,4.000000,4.000000,4.000000,4.000000,4.000000,4.000000,4.000000,4.000000,4.000000,4.000000,4.000000,4.000000,4.000000,100.000000,51.000000,0.000000,1670.000000,1690.000000,,,,,,,,,,,,,,,,,,,,,,,,,,,,,,,,,,,,,,,,,,,,,,,,,,,,,,,,,,,,,,,,,,,,,,,,,,,,,,,,,,,,,,,,,,,,,,,,,,,,,,,,,,,,,,,,,,,,
1600453867.729735,52.000000,0.000000,3996.923096,4734.871582,4273.846191,4346.153809,4096.410156,4703.077148,4072.307617,3953.846191,4381.025879,4126.153809,4329.743652,4277.948730,4170.256348,4122.563965,0.000000,4.000000,,,,0.000000,4.000000,4.000000,4.000000,4.000000,4.000000,4.000000,4.000000,4.000000,4.000000,4.000000,4.000000,4.000000,4.000000,4.000000,100.000000,52.000000,0.000000,1669.000000,1689.000000,,,,,,,,,,,,,,,,,,,,,,,,,,,,,,,,,,,,,,,,,,,,,,,,,,,,,,,,,,,,,,,,,,,,,,,,,,,,,,,,,,,,,,,,,,,,,,,,,,,,,,,,,,,,,,,,,,,,
1600453867.737455,53.000000,0.000000,4005.128174,4739.487305,4277.948730,4347.692383,4111.282227,4731.282227,4086.666748,3958.974365,4400.000000,4159.487305,4334.871582,4280.000000,4177.948730,4131.794922,0.000000,4.000000,,,,0.000000,4.000000,4.000000,4.000000,4.000000,4.000000,4.000000,4.000000,4.000000,4.000000,4.000000,4.000000,4.000000,4.000000,4.000000,100.000000,53.000000,0.000000,1668.000000,1692.000000,,,,,,,,,,,,,,,,,,,,,,,,,,,,,,,,,,,,,,,,,,,,,,,,,,,,,,,,,,,,,,,,,,,,,,,,,,,,,,,,,,,,,,,,,,,,,,,,,,,,,,,,,,,,,,,,,,,,
1600453867.745275,54.000000,0.000000,4003.076904,4735.384766,4272.820313,4337.948730,4125.128418,4720.512695,4078.461426,3952.820557,4375.897461,4154.358887,4327.692383,4276.922852,4174.358887,4130.256348,0.000000,4.000000,,,,0.000000,4.000000,4.000000,4.000000,4.000000,4.000000,4.000000,4.000000,4.000000,4.000000,4.000000,4.000000,4.000000,4.000000,4.000000,100.000000,54.000000,0.000000,1669.000000,1692.000000,,,,,,,,,,,,,,,,,,,,,,,,,,,,,,,,,,,,,,,,,,,,,,,,,,,,,,,,,,,,,,,,,,,,,,,,,,,,,,,,,,,,,,,,,,,,,,,,,,,,,,,,,,,,,,,,,,,,
1600453867.752995,55.000000,0.000000,4000.000000,4731.794922,4270.769043,4341.025879,4107.692383,4697.436035,4066.666748,3948.205078,4369.230957,4122.051270,4328.717773,4278.974121,4170.769043,4125.128418,0.000000,4.000000,,,,0.000000,4.000000,4.000000,4.000000,4.000000,4.000000,4.000000,4.000000,4.000000,4.000000,4.000000,4.000000,4.000000,4.000000,4.000000,100.000000,55.000000,0.000000,1669.000000,1692.000000,,,,,,,,,,,,,,,,,,,,,,,,,,,,,,,,,,,,,,,,,,,,,,,28.466774,1.818139,1.131075,0.719721,0.373570,15.202670,1.749654,0.714331,0.802347,0.408539,6.009113,1.071884,0.459497,0.377217,0.217097,4.615075,1.111255,0.306665,0.481812,0.222508,3.649813,1.064278,0.486610,0.983882,1.511278,2.483458,0.404043,0.574620,3.532979,2.497687,3.145274,0.407097,0.705302,1.276711,0.721896,2.869348,1.057782,2.367119,1.234129,1.271963,1.914367,0.800835,3.848928,3.582435,4.921102,4.908761,1.493024,0.669671,2.856890,2.407625,5.397008,0.825519,0.469368,0.428583,0.393767,8.020102,1.036596,0.383152,0.425195,0.340919,16.283022,2.108851,0.627349,0.822298,0.529066,28.739141,2.070711,0.927450,0.556546,0.375713
1600453867.760915,56.000000,0.000000,4008.205078,4740.000000,4280.512695,4354.871582,4095.897461,4716.922852,4078.974365,3963.589844,4403.077148,4126.666504,4343.077148,4287.179688,4185.128418,4135.384766,0.000000,4.000000,,,,0.000000,4.000000,4.000000,4.000000,4.000000,4.000000,4.000000,4.000000,4.000000,4.000000,4.000000,4.000000,4.000000,4.000000,4.000000,100.000000,56.000000,0.000000,1669.000000,1691.000000,,,,,,,,,,,,,,,,,,,,,,,,,,,,,,,,,,,,,,,,,,,,,,,,,,,,,,,,,,,,,,,,,,,,,,,,,,,,,,,,,,,,,,,,,,,,,,,,,,,,,,,,,,,,,,,,,,,,
1600453867.768735,57.000000,0.000000,4004.615479,4736.922852,4278.461426,4343.077148,4118.461426,4729.230957,4085.641113,3973.846191,4418.974121,4152.307617,4341.025879,4283.077148,4189.230957,4136.410156,0.000000,4.000000,,,,0.000000,4.000000,4.000000,4.000000,4.000000,4.000000,4.000000,4.000000,4.000000,4.000000,4.000000,4.000000,4.000000,4.000000,4.000000,100.000000,57.000000,0.000000,1669.000000,1693.000000,,,,,,,,,,,,,,,,,,,,,,,,,,,,,,,,,,,,,,,,,,,,,,,,,,,,,,,,,,,,,,,,,,,,,,,,,,,,,,,,,,,,,,,,,,,,,,,,,,,,,,,,,,,,,,,,,,,,
1600453867.776655,58.000000,0.000000,3990.256348,4726.666504,4268.205078,4328.205078,4130.256348,4717.436035,4078.461426,3961.025635,4394.358887,4151.794922,4328.205078,4274.358887,4177.948730,4122.051270,0.000000,4.000000,,,,0.000000,4.000000,4.000000,4.000000,4.000000,4.000000,4.000000,4.000000,4.000000,4.000000,4.000000,4.000000,4.000000,4.000000,4.000000,100.000000,58.000000,0.000000,1671.000000,1692.000000,,,,,,,,,,,,,,,,,,,,,,,,,,,,,,,,,,,,,,,,,,,,,,,,,,,,,,,,,,,,,,,,,,,,,,,,,,,,,,,,,,,,,,,,,,,,,,,,,,,,,,,,,,,,,,,,,,,,
1600453867.784475,59.000000,0.000000,4003.589844,4737.436035,4278.461426,4345.128418,4118.974121,4728.717773,4088.718018,3960.512939,4381.538574,4139.487305,4337.948730,4282.051270,4187.692383,4128.205078,0.000000,4.000000,,,,0.000000,4.000000,4.000000,4.000000,4.000000,4.000000,4.000000,4.000000,4.000000,4.000000,4.000000,4.000000,4.000000,4.000000,4.000000,100.000000,59.000000,0.000000,1669.000000,1691.000000,,,,,,,,,,,,,,,,,,,,,,,,,,,,,,,,,,,,,,,,,,,,,,,,,,,,,,,,,,,,,,,,,,,,,,,,,,,,,,,,,,,,,,,,,,,,,,,,,,,,,,,,,,,,,,,,,,,,
1600453867.792395,60.000000,0.000000,4020.000000,4745.641113,4287.179688,4353.333496,4106.153809,4731.282227,4097.436035,3969.230713,4380.512695,4146.153809,4347.692383,4287.692383,4200.512695,4141.538574,0.000000,4.000000,,,,0.000000,4.000000,4.000000,4.000000,4.000000,4.000000,4.000000,4.000000,4.000000,4.000000,4.000000,4.000000,4.000000,4.000000,4.000000,100.000000,60.000000,0.000000,1671.000000,1689.000000,,,,,,,,,,,,,,,,,,,,,,,,,,,,,,,,,,,,,,,,,,,,,,,,,,,,,,,,,,,,,,,,,,,,,,,,,,,,,,,,,,,,,,,,,,,,,,,,,,,,,,,,,,,,,,,,,,,,
1600453867.800215,61.000000,0.000000,4003.076904,4729.743652,4275.897461,4335.384766,4111.794922,4705.641113,4082.051270,3962.051270,4379.487305,4153.846191,4331.794922,4276.410156,4187.179688,4130.256348,0.000000,4.000000,,,,0.000000,4.000000,4.000000,4.000000,4.000000,4.000000,4.000000,4.000000,4.000000,4.000000,4.000000,4.000000,4.000000,4.000000,4.000000,100.000000,61.000000,0.000000,1670.000000,1688.000000,,,,,,,,,,,,,,,,,,,,,,,,,,,,,,,,,,,,,,,,,,,,,,,,,,,,,,,,,,,,,,,,,,,,,,,,,,,,,,,,,,,,,,,,,,,,,,,,,,,,,,,,,,,,,,,,,,,,
1600453867.808135,62.000000,0.000000,3980.512939,4714.871582,4266.666504,4326.153809,4113.333496,4696.922852,4067.179443,3952.820557,4389.743652,4140.512695,4319.487305,4264.102539,4170.256348,4115.897461,0.000000,4.000000,,,,0.000000,4.000000,4.000000,4.000000,4.000000,4.000000,4.000000,4.000000,4.000000,4.000000,4.000000,4.000000,4.000000,4.000000,4.000000,100.000000,62.000000,0.000000,1670.000000,1689.000000,,,,,,,,,,,,,,,,,,,,,,,,,,,,,,,,,,,,,,,,,,,,,,,,,,,,,,,,,,,,,,,,,,,,,,,,,,,,,,,,,,,,,,,,,,,,,,,,,,,,,,,,,,,,,,,,,,,,
1600453867.815955,63.000000,0.000000,3995.384521,4726.153809,4277.948730,4341.025879,4111.794922,4721.025879,4080.000000,3963.076904,4408.205078,4133.846191,4336.410156,4275.897461,4180.512695,4128.205078,0.000000,4.000000,,,,0.000000,4.000000,4.000000,4.000000,4.000000,4.000000,4.000000,4.000000,4.000000,4.000000,4.000000,4.000000,4.000000,4.000000,4.000000,100.000000,63.000000,0.000000,1670.000000,1688.000000,,,,,,,,,,,,,,,,,,,,,,,,,,,,,,,,,,,,,,,,,,,,,,,,,,,,,,,,,,,,,,,,,,,,,,,,,,,,,,,,,,,,,,,,,,,,,,,,,,,,,,,,,,,,,,,,,,,,
1600453867.823875,64.000000,0.000000,4007.692383,4732.307617,4281.025879,4345.641113,4104.615234,4718.974121,4078.461426,3963.076904,4403.589844,4131.282227,4338.974121,4282.563965,4185.128418,4135.897461,373.000000,4.000000,,,,0.000000,4.000000,4.000000,4.000000,4.000000,4.000000,4.000000,4.000000,4.000000,4.000000,4.000000,4.000000,4.000000,4.000000,4.000000,100.000000,64.000000,0.000000,1670.000000,1690.000000,,,,,,,,,,,,,,,,,,,,,,,,,,,,,,,,,,,,,,,,,,,,,,,,,,,,,,,,,,,,,,,,,,,,,,,,,,,,,,,,,,,,,,,,,,,,,,,,,,,,,,,,,,,,,,,,,,,,
1600453867.831694,65.000000,0.000000,3996.923096,4725.641113,4273.846191,4340.512695,4088.205078,4691.282227,4056.923096,3939.487061,4366.666504,4136.922852,4326.666504,4275.897461,4178.461426,4129.743652,389.000000,4.000000,,,,0.000000,4.000000,4.000000,4.000000,4.000000,4.000000,4.000000,4.000000,4.000000,4.000000,4.000000,4.000000,4.000000,4.000000,4.000000,100.000000,65.000000,0.000000,1671.000000,1690.000000,,,,,,,,,,,,,,,,,,,,,,,,,,,,,,,,,,,,,,,,,,,,,,,,,,,,,,,,,,,,,,,,,,,,,,,,,,,,,,,,,,,,,,,,,,,,,,,,,,,,,,,,,,,,,,,,,,,,
1600453867.839614,66.000000,0.000000,3986.153809,4715.384766,4272.307617,4335.384766,4083.589844,4685.128418,4052.820557,3920.000000,4337.436035,4132.307617,4323.589844,4272.307617,4172.820313,4126.666504,422.000000,4.000000,,,,0.000000,4.000000,4.000000,4.000000,4.000000,4.000000,4.000000,4.000000,4.000000,4.000000,4.000000,4.000000,4.000000,4.000000,4.000000,100.000000,66.000000,0.000000,1670.000000,1692.000000,,,,,,,,,,,,,,,,,,,,,,,,,,,,,,,,,,,,,,,,,,,,,,,,,,,,,,,,,,,,,,,,,,,,,,,,,,,,,,,,,,,,,,,,,,,,,,,,,,,,,,,,,,,,,,,,,,,,
1600453867.847434,67.000000,0.000000,3986.666748,4712.820313,4274.358887,4334.358887,4104.102539,4708.205078,4069.743652,3933.846191,4370.769043,4121.538574,4325.641113,4277.436035,4167.179688,4127.179688,422.000000,4.000000,,,,0.000000,4.000000,4.000000,4.000000,4.000000,4.000000,4.000000,4.000000,4.000000,4.000000,4.000000,4.000000,4.000000,4.000000,4.000000,100.000000,67.000000,0.000000,1671.000000,1693.000000,,,,,,,,,,,,,,,,,,,,,,,,,,,,,,,,,,,,,,,,,,,,,,,,,,,,,,,,,,,,,,,,,,,,,,,,,,,,,,,,,,,,,,,,,,,,,,,,,,,,,,,,,,,,,,,,,,,,
1600453867.855154,68.000000,0.000000,3988.205078,4718.461426,4272.820313,4336.922852,4110.769043,4722.051270,4076.923096,3951.281982,4404.615234,4136.922852,4323.077148,4279.487305,4163.589844,4125.128418,446.000000,4.000000,,,,0.000000,4.000000,4.000000,4.000000,4.000000,4.000000,4.000000,4.000000,4.000000,4.000000,4.000000,4.000000,4.000000,4.000000,4.000000,100.000000,68.000000,0.000000,1671.000000,1693.000000,,,,,,,,,,,,,,,,,,,,,,,,,,,,,,,,,,,,,,,,,,,,,,,,,,,,,,,,,,,,,,,,,,,,,,,,,,,,,,,,,,,,,,,,,,,,,,,,,,,,,,,,,,,,,,,,,,,,
1600453867.862974,69.000000,0.000000,3986.153809,4721.025879,4268.717773,4337.948730,4094.871826,4708.717773,4070.256348,3942.051270,4382.563965,4150.256348,4325.128418,4276.410156,4164.102539,4126.666504,412.000000,4.000000,,,,0.000000,4.000000,4.000000,4.000000,4.000000,4.000000,4.000000,4.000000,4.000000,4.000000,4.000000,4.000000,4.000000,4.000000,4.000000,100.000000,69.000000,0.000000,1671.000000,1693.000000,,,,,,,,,,,,,,,,,,,,,,,,,,,,,,,,,,,,,,,,,,,,,,,,,,,,,,,,,,,,,,,,,,,,,,,,,,,,,,,,,,,,,,,,,,,,,,,,,,,,,,,,,,,,,,,,,,,,
1600453867.870694,70.000000,0.000000,3980.512939,4713.846191,4264.102539,4333.333496,4091.794922,4696.410156,4063.589844,3933.846191,4368.717773,4121.538574,4324.102539,4268.717773,4158.974121,4125.641113,428.000000,4.000000,,,,0.000000,4.000000,4.000000,4.000000,4.000000,4.000000,4.000000,4.000000,4.000000,4.000000,4.000000,4.000000,4.000000,4.000000,4.000000,100.000000,70.000000,0.000000,1670.000000,1692.000000,,,,,,,,,,,,,,,,,,,,,,,,,,,,,,,,,,,,,,,,,,,,,,,,,,,,,,,,,,,,,,,,,,,,,,,,,,,,,,,,,,,,,,,,,,,,,,,,,,,,,,,,,,,,,,,,,,,,
1600453867.878514,71.000000,0.000000,3976.410156,4711.794922,4265.128418,4331.794922,4096.410156,4707.179688,4069.743652,3950.256348,4389.743652,4111.282227,4319.487305,4264.615234,4152.820313,4120.000000,356.000000,4.000000,,,,0.000000,4.000000,4.000000,4.000000,4.000000,4.000000,4.000000,4.000000,4.000000,4.000000,4.000000,4.000000,4.000000,4.000000,4.000000,100.000000,71.000000,0.000000,1671.000000,1691.000000,,,,,,,,,,,,,,,,,,,,,,,,,,,,,,,,,,,,,,,,,,,,,,,22.190680,1.616479,0.998652,0.788867,0.353740,12.568828,1.604766,0.587729,0.838677,0.428752,5.170954,1.048469,0.435845,0.395091,0.242945,3.940613,1.083827,0.321088,0.497565,0.252527,3.963530,1.013143,0.407807,1.036140,1.595737,2.771544,0.374482,0.532824,3.955783,2.456013,3.003017,0.285442,0.715730,1.282593,0.712833,3.089151,0.813446,2.432626,1.316177,1.297032,1.938622,0.768131,3.607459,3.627929,4.512167,4.744338,1.452067,0.706868,3.098330,2.394156,4.635428,0.793355,0.470539,0.444578,0.426978,6.960865,0.997902,0.388905,0.461253,0.356005,13.618687,2.014461,0.583287,0.909607,0.539495,23.739918,1.923304,0.819336,0.609165,0.385784
1600453867.886234,72.000000,0.000000,3969.743652,4710.769043,4264.615234,4327.179688,4092.820557,4709.230957,4075.897461,3958.974365,4389.743652,4137.948730,4315.384766,4263.589844,4151.794922,4113.333496,363.000000,4.000000,,,,0.000000,4.000000,4.000000,4.000000,4.000000,4.000000,4.000000,4.000000,4.000000,4.000000,4.000000,4.000000,4.000000,4.000000,4.000000,100.000000,72.000000,0.000000,1670.000000,1689.000000,,,,,,,,,,,,,,,,,,,,,,,,,,,,,,,,,,,,,,,,,,,,,,,,,,,,,,,,,,,,,,,,,,,,,,,,,,,,,,,,,,,,,,,,,,,,,,,,,,,,,,,,,,,,,,,,,,,,
1600453867.894054,73.000000,0.000000,3960.000000,4699.487305,4254.871582,4320.512695,4091.794922,4688.717773,4066.153809,3943.589844,4368.717773,4138.461426,4311.282227,4257.436035,4149.230957,4110.256348,369.000000,4.000000,,,,0.000000,4.000000,4.000000,4.000000,4.000000,4.000000,4.000000,4.000000,4.000000,4.000000,4.000000,4.000000,4.000000,4.000000,4.000000,100.000000,73.000000,0.000000,1670.000000,1689.000000,,,,,,,,,,,,,,,,,,,,,,,,,,,,,,,,,,,,,,,,,,,,,,,,,,,,,,,,,,,,,,,,,,,,,,,,,,,,,,,,,,,,,,,,,,,,,,,,,,,,,,,,,,,,,,,,,,,,
1600453867.901774,74.000000,0.000000,3962.564209,4700.512695,4252.820313,4325.128418,4088.718018,4692.820313,4064.615479,3937.948730,4372.820313,4120.512695,4318.461426,4258.461426,4150.769043,4115.897461,402.000000,4.000000,,,,0.000000,4.000000,4.000000,4.000000,4.000000,4.000000,4.000000,4.000000,4.000000,4.000000,4.000000,4.000000,4.000000,4.000000,4.000000,100.000000,74.000000,0.000000,1670.000000,1687.000000,,,,,,,,,,,,,,,,,,,,,,,,,,,,,,,,,,,,,,,,,,,,,,,,,,,,,,,,,,,,,,,,,,,,,,,,,,,,,,,,,,,,,,,,,,,,,,,,,,,,,,,,,,,,,,,,,,,,
1600453867.909594,75.000000,0.000000,3970.769287,4718.974121,4263.589844,4335.384766,4094.871826,4722.563965,4080.512939,3948.718018,4390.256348,4128.717773,4331.282227,4268.717773,4161.025879,4124.615234,378.000000,4.000000,,,,0.000000,4.000000,4.000000,4.000000,4.000000,4.000000,4.000000,4.000000,4.000000,4.000000,4.000000,4.000000,4.000000,4.000000,4.000000,100.000000,75.000000,0.000000,1669.000000,1688.000000,,,,,,,,,,,,,,,,,,,,,,,,,,,,,,,,,,,,,,,,,,,,,,,,,,,,,,,,,,,,,,,,,,,,,,,,,,,,,,,,,,,,,,,,,,,,,,,,,,,,,,,,,,,,,,,,,,,,
1600453867.917314,76.000000,0.000000,3968.205078,4728.717773,4270.256348,4337.436035,4112.820313,4723.589844,4081.538574,3946.666748,4378.974121,4150.769043,4332.820313,4269.230957,4168.717773,4127.179688,374.000000,4.000000,,,,0.000000,4.000000,4.000000,4.000000,4.000000,4.000000,4.000000,4.000000,4.000000,4.000000,4.000000,4.000000,4.000000,4.000000,4.000000,100.000000,76.000000,0.000000,1670.000000,1686.000000,,,,,,,,,,,,,,,,,,,,,,,,,,,,,,,,,,,,,,,,,,,,,,,,,,,,,,,,,,,,,,,,,,,,,,,,,,,,,,,,,,,,,,,,,,,,,,,,,,,,,,,,,,,,,,,,,,,,
1600453867.925134,77.000000,0.000000,3969.230713,4729.743652,4272.820313,4340.512695,4112.820313,4711.282227,4072.820557,3937.435791,4363.589844,4151.282227,4327.179688,4266.666504,4169.230957,4128.205078,366.000000,4.000000,,,,0.000000,4.000000,4.000000,4.000000,4.000000,4.000000,4.000000,4.000000,4.000000,4.000000,4.000000,4.000000,4.000000,4.000000,4.000000,100.000000,77.000000,0.000000,1668.000000,1686.000000,,,,,,,,,,,,,,,,,,,,,,,,,,,,,,,,,,,,,,,,,,,,,,,,,,,,,,,,,,,,,,,,,,,,,,,,,,,,,,,,,,,,,,,,,,,,,,,,,,,,,,,,,,,,,,,,,,,,
1600453867.932854,78.000000,0.000000,3980.512939,4734.871582,4274.871582,4345.128418,4113.333496,4721.025879,4084.102539,3949.230713,4390.769043,4137.436035,4327.179688,4275.897461,4170.769043,4135.384766,402.000000,4.000000,,,,0.000000,4.000000,4.000000,4.000000,4.000000,4.000000,4.000000,4.000000,4.000000,4.000000,4.000000,4.000000,4.000000,4.000000,4.000000,100.000000,78.000000,0.000000,1669.000000,1686.000000,,,,,,,,,,,,,,,,,,,,,,,,,,,,,,,,,,,,,,,,,,,,,,,,,,,,,,,,,,,,,,,,,,,,,,,,,,,,,,,,,,,,,,,,,,,,,,,,,,,,,,,,,,,,,,,,,,,,
1600453867.940774,79.000000,0.000000,3977.435791,4728.205078,4268.205078,4336.410156,4113.846191,4721.538574,4091.281982,3962.564209,4409.743652,4135.897461,4324.615234,4278.974121,4166.666504,4135.897461,378.000000,4.000000,,,,0.000000,4.000000,4.000000,4.000000,4.000000,4.000000,4.000000,4.000000,4.000000,4.000000,4.000000,4.000000,4.000000,4.000000,4.000000,100.000000,79.000000,0.000000,1668.000000,1686.000000,,,,,,,,,,,,,,,,,,,,,,,,,,,,,,,,,,,,,,,,,,,,,,,,,,,,,,,,,,,,,,,,,,,,,,,,,,,,,,,,,,,,,,,,,,,,,,,,,,,,,,,,,,,,,,,,,,,,
1600453867.948594,80.000000,0.000000,3975.384521,4721.025879,4270.769043,4337.948730,4100.512695,4710.769043,4085.128174,3963.076904,4387.692383,4136.410156,4328.205078,4278.974121,4169.230957,4142.051270,374.000000,4.000000,,,,0.000000,4.000000,4.000000,4.000000,4.000000,4.000000,4.000000,4.000000,4.000000,4.000000,4.000000,4.000000,4.000000,4.000000,4.000000,100.000000,80.000000,0.000000,1669.000000,1686.000000,,,,,,,,,,,,,,,,,,,,,,,,,,,,,,,,,,,,,,,,,,,,,,,,,,,,,,,,,,,,,,,,,,,,,,,,,,,,,,,,,,,,,,,,,,,,,,,,,,,,,,,,,,,,,,,,,,,,
1600453867.956514,81.000000,0.000000,3984.102539,4724.615234,4281.025879,4345.128418,4104.615234,4712.820313,4081.538574,3958.974365,4383.589844,4124.102539,4331.794922,4281.025879,4174.358887,4155.384766,366.000000,4.000000,,,,0.000000,4.000000,4.000000,4.000000,4.000000,4.000000,4.000000,4.000000,4.000000,4.000000,4.000000,4.000000,4.000000,4.000000,4.000000,100.000000,81.000000,0.000000,1668.000000,1685.000000,,,,,,,,,,,,,,,,,,,,,,,,,,,,,,,,,,,,,,,,,,,,,,,,,,,,,,,,,,,,,,,,,,,,,,,,,,,,,,,,,,,,,,,,,,,,,,,,,,,,,,,,,,,,,,,,,,,,
1600453867.964334,82.000000,0.000000,3991.794922,4729.743652,4283.077148,4343.077148,4125.128418,4723.589844,4086.153809,3961.538574,4401.538574,4135.897461,4327.692383,4283.077148,4170.256348,4162.051270,402.000000,4.000000,,,,0.000000,4.000000,4.000000,4.000000,4.000000,4.000000,4.000000,4.000000,4.000000,4.000000,4.000000,4.000000,4.000000,4.000000,4.000000,100.000000,82.000000,0.000000,1667.000000,1686.000000,,,,,,,,,,,,,,,,,,,,,,,,,,,,,,,,,,,,,,,,,,,,,,,,,,,,,,,,,,,,,,,,,,,,,,,,,,,,,,,,,,,,,,,,,,,,,,,,,,,,,,,,,,,,,,,,,,,,
1600453867.972254,83.000000,0.000000,3988.718018,4722.051270,4275.384766,4336.410156,4108.717773,4715.897461,4081.538574,3959.487061,4377.948730,4152.820313,4323.589844,4280.512695,4162.051270,4157.948730,378.000000,4.000000,,,,0.000000,4.000000,4.000000,4.000000,4.000000,4.000000,4.000000,4.000000,4.000000,4.000000,4.000000,4.000000,4.000000,4.000000,4.000000,100.000000,83.000000,0.000000,1667.000000,1685.000000,,,,,,,,,,,,,,,,,,,,,,,,,,,,,,,,,,,,,,,,,,,,,,,,,,,,,,,,,,,,,,,,,,,,,,,,,,,,,,,,,,,,,,,,,,,,,,,,,,,,,,,,,,,,,,,,,,,,
1600453867.980074,84.000000,0.000000,3985.128174,4719.487305,4276.922852,4338.974121,4093.333252,4701.538574,4073.846191,3950.769287,4357.948730,4135.384766,4325.128418,4281.538574,4162.563965,4158.974121,374.000000,4.000000,,,,0.000000,4.000000,4.000000,4.000000,4.000000,4.000000,4.000000,4.000000,4.000000,4.000000,4.000000,4.000000,4.000000,4.000000,4.000000,100.000000,84.000000,0.000000,1667.000000,1685.000000,,,,,,,,,,,,,,,,,,,,,,,,,,,,,,,,,,,,,,,,,,,,,,,,,,,,,,,,,,,,,,,,,,,,,,,,,,,,,,,,,,,,,,,,,,,,,,,,,,,,,,,,,,,,,,,,,,,,
1600453867.987993,85.000000,0.000000,3982.051270,4718.974121,4282.563965,4340.512695,4107.179688,4707.692383,4071.794922,3946.153809,4381.538574,4114.871582,4323.589844,4284.102539,4157.436035,4160.512695,366.000000,4.000000,,,,0.000000,4.000000,4.000000,4.000000,4.000000,4.000000,4.000000,4.000000,4.000000,4.000000,4.000000,4.000000,4.000000,4.000000,4.000000,100.000000,85.000000,0.000000,1667.000000,1686.000000,,,,,,,,,,,,,,,,,,,,,,,,,,,,,,,,,,,,,,,,,,,,,,,,,,,,,,,,,,,,,,,,,,,,,,,,,,,,,,,,,,,,,,,,,,,,,,,,,,,,,,,,,,,,,,,,,,,,
1600453867.995813,86.000000,0.000000,3975.384521,4711.282227,4277.948730,4331.794922,4106.153809,4714.358887,4077.435791,3957.435791,4386.666504,4125.128418,4323.589844,4285.641113,4155.384766,4162.051270,402.000000,4.000000,,,,0.000000,4.000000,4.000000,4.000000,4.000000,4.000000,4.000000,4.000000,4.000000,4.000000,4.000000,4.000000,4.000000,4.000000,4.000000,100.000000,86.000000,0.000000,1667.000000,1686.000000,,,,,,,,,,,,,,,,,,,,,,,,,,,,,,,,,,,,,,,,,,,,,,,,,,,,,,,,,,,,,,,,,,,,,,,,,,,,,,,,,,,,,,,,,,,,,,,,,,,,,,,,,,,,,,,,,,,,
1600453868.003733,87.000000,0.000000,3960.512939,4694.358887,4258.974121,4316.410156,4087.692383,4682.051270,4065.641113,3948.205078,4348.205078,4131.794922,4318.461426,4274.358887,4158.461426,4157.948730,378.000000,4.000000,,,,0.000000,4.000000,4.000000,4.000000,4.000000,4.000000,4.000000,4.000000,4.000000,4.000000,4.000000,4.000000,4.000000,4.000000,4.000000,100.000000,87.000000,0.000000,1667.000000,1687.000000,,,,,,,,,,,,,,,,,,,,,,,,,,,,,,,,,,,,,,,,,,,,,,,14.620757,1.411943,0.846993,0.824047,0.339922,9.109183,1.497449,0.459923,0.847612,0.454751,3.979418,0.956906,0.393269,0.399209,0.267360,3.011958,1.039334,0.321296,0.492650,0.285914,3.999593,0.986323,0.315088,1.077198,1.634330,2.825819,0.396243,0.524146,4.038498,2.332919,2.748323,0.235030,0.729833,1.216635,0.695802,3.199150,0.664879,2.383804,1.349131,1.328613,1.956296,0.798838,3.278265,3.618928,3.905467,4.482018,1.437839,0.740286,3.329637,2.320626,3.633144,0.743106,0.443589,0.450659,0.453499,5.389999,0.914715,0.369467,0.484032,0.368948,10.107434,1.764568,0.502461,0.974662,0.531073,17.064383,1.702184,0.694681,0.637003,0.388780
1600453868.011553,88.000000,0.000000,3953.846191,4696.410156,4258.974121,4324.615234,4088.718018,4671.282227,4053.846191,3925.641113,4350.256348,4121.538574,4318.461426,4268.205078,4164.102539,4158.974121,374.000000,4.000000,,,,0.000000,4.000000,4.000000,4.000000,4.000000,4.000000,4.000000,4.000000,4.000000,4.000000,4.000000,4.000000,4.000000,4.000000,4.000000,100.000000,88.000000,0.000000,1668.000000,1687.000000,,,,,,,,,,,,,,,,,,,,,,,,,,,,,,,,,,,,,,,,,,,,,,,,,,,,,,,,,,,,,,,,,,,,,,,,,,,,,,,,,,,,,,,,,,,,,,,,,,,,,,,,,,,,,,,,,,,,
1600453868.019473,89.000000,0.000000,3982.051270,4715.897461,4276.922852,4346.153809,4098.974121,4718.461426,4071.794922,3940.512939,4404.615234,4125.128418,4329.230957,4280.512695,4174.358887,4172.307617,366.000000,4.000000,,,,0.000000,4.000000,4.000000,4.000000,4.000000,4.000000,4.000000,4.000000,4.000000,4.000000,4.000000,4.000000,4.000000,4.000000,4.000000,100.000000,89.000000,0.000000,1667.000000,1688.000000,,,,,,,,,,,,,,,,,,,,,,,,,,,,,,,,,,,,,,,,,,,,,,,,,,,,,,,,,,,,,,,,,,,,,,,,,,,,,,,,,,,,,,,,,,,,,,,,,,,,,,,,,,,,,,,,,,,,
1600453868.027293,90.000000,0.000000,3989.230713,4712.307617,4274.358887,4338.461426,4096.410156,4731.282227,4081.538574,3962.051270,4412.820313,4130.769043,4329.743652,4283.589844,4172.820313,4171.282227,402.000000,4.000000,,,,0.000000,4.000000,4.000000,4.000000,4.000000,4.000000,4.000000,4.000000,4.000000,4.000000,4.000000,4.000000,4.000000,4.000000,4.000000,100.000000,90.000000,0.000000,1669.000000,1688.000000,,,,,,,,,,,,,,,,,,,,,,,,,,,,,,,,,,,,,,,,,,,,,,,,,,,,,,,,,,,,,,,,,,,,,,,,,,,,,,,,,,,,,,,,,,,,,,,,,,,,,,,,,,,,,,,,,,,,
1600453868.035112,91.000000,0.000000,3912.307617,4693.333496,4258.974121,4316.410156,4086.153809,4693.333496,4061.538574,3951.794922,4372.820313,4119.487305,4314.871582,4266.153809,4156.410156,4153.846191,378.000000,4.000000,,,,0.000000,4.000000,4.000000,4.000000,4.000000,4.000000,4.000000,4.000000,4.000000,4.000000,4.000000,4.000000,4.000000,4.000000,4.000000,100.000000,91.000000,0.000000,1668.000000,1688.000000,,,,,,,,,,,,,,,,,,,,,,,,,,,,,,,,,,,,,,,,,,,,,,,,,,,,,,,,,,,,,,,,,,,,,,,,,,,,,,,,,,,,,,,,,,,,,,,,,,,,,,,,,,,,,,,,,,,,
1600453868.042932,92.000000,0.000000,3845.641113,4689.743652,4252.307617,4315.897461,4087.179443,4685.128418,4050.769287,3937.435791,4356.922852,4114.358887,4310.256348,4253.846191,4149.743652,4146.153809,374.000000,4.000000,,,,0.000000,4.000000,4.000000,4.000000,4.000000,4.000000,4.000000,4.000000,4.000000,4.000000,4.000000,4.000000,4.000000,4.000000,4.000000,100.000000,92.000000,0.000000,1668.000000,1690.000000,,,,,,,,,,,,,,,,,,,,,,,,,,,,,,,,,,,,,,,,,,,,,,,,,,,,,,,,,,,,,,,,,,,,,,,,,,,,,,,,,,,,,,,,,,,,,,,,,,,,,,,,,,,,,,,,,,,,
1600453868.050652,93.000000,0.000000,3885.641113,4705.128418,4255.384766,4328.205078,4110.256348,4711.794922,4069.743652,3951.281982,4382.563965,4145.128418,4325.128418,4266.666504,4163.589844,4158.461426,366.000000,4.000000,,,,0.000000,4.000000,4.000000,4.000000,4.000000,4.000000,4.000000,4.000000,4.000000,4.000000,4.000000,4.000000,4.000000,4.000000,4.000000,100.000000,93.000000,0.000000,1669.000000,1689.000000,,,,,,,,,,,,,,,,,,,,,,,,,,,,,,,,,,,,,,,,,,,,,,,,,,,,,,,,,,,,,,,,,,,,,,,,,,,,,,,,,,,,,,,,,,,,,,,,,,,,,,,,,,,,,,,,,,,,
1600453868.058472,94.000000,0.000000,3942.564209,4710.769043,4262.051270,4333.846191,4108.205078,4715.384766,4083.076904,3962.051270,4399.487305,4161.025879,4332.820313,4280.512695,4174.871582,4168.205078,402.000000,4.000000,,,,0.000000,4.000000,4.000000,4.000000,4.000000,4.000000,4.000000,4.000000,4.000000,4.000000,4.000000,4.000000,4.000000,4.000000,4.000000,100.000000,94.000000,0.000000,1667.000000,1690.000000,,,,,,,,,,,,,,,,,,,,,,,,,,,,,,,,,,,,,,,,,,,,,,,,,,,,,,,,,,,,,,,,,,,,,,,,,,,,,,,,,,,,,,,,,,,,,,,,,,,,,,,,,,,,,,,,,,,,
1600453868.066192,95.000000,0.000000,3937.948730,4701.538574,4265.128418,4330.769043,4076.410156,4693.333496,4072.307617,3948.718018,4376.922852,4121.025879,4324.102539,4276.922852,4166.666504,4165.128418,378.000000,4.000000,,,,0.000000,4.000000,4.000000,4.000000,4.000000,4.000000,4.000000,4.000000,4.000000,4.000000,4.000000,4.000000,4.000000,4.000000,4.000000,100.000000,95.000000,0.000000,1669.000000,1689.000000,,,,,,,,,,,,,,,,,,,,,,,,,,,,,,,,,,,,,,,,,,,,,,,,,,,,,,,,,,,,,,,,,,,,,,,,,,,,,,,,,,,,,,,,,,,,,,,,,,,,,,,,,,,,,,,,,,,,
1600453868.074012,96.000000,0.000000,3922.051270,4687.692383,4254.871582,4315.897461,4076.410156,4677.948730,4054.871826,3933.333252,4352.820313,4093.846191,4309.230957,4260.512695,4146.153809,4150.769043,374.000000,4.000000,,,,0.000000,4.000000,4.000000,4.000000,4.000000,4.000000,4.000000,4.000000,4.000000,4.000000,4.000000,4.000000,4.000000,4.000000,4.000000,100.000000,96.000000,0.000000,1669.000000,1689.000000,,,,,,,,,,,,,,,,,,,,,,,,,,,,,,,,,,,,,,,,,,,,,,,,,,,,,,,,,,,,,,,,,,,,,,,,,,,,,,,,,,,,,,,,,,,,,,,,,,,,,,,,,,,,,,,,,,,,
1600453868.081732,97.000000,0.000000,3938.461426,4692.820313,4255.897461,4316.922852,4115.897461,4693.846191,4064.615479,3944.615479,4372.307617,4139.487305,4312.820313,4260.000000,4151.794922,4153.333496,366.000000,4.000000,,,,0.000000,4.000000,4.000000,4.000000,4.000000,4.000000,4.000000,4.000000,4.000000,4.000000,4.000000,4.000000,4.000000,4.000000,4.000000,100.000000,97.000000,0.000000,1670.000000,1689.000000,,,,,,,,,,,,,,,,,,,,,,,,,,,,,,,,,,,,,,,,,,,,,,,,,,,,,,,,,,,,,,,,,,,,,,,,,,,,,,,,,,,,,,,,,,,,,,,,,,,,,,,,,,,,,,,,,,,,
1600453868.089552,98.000000,0.000000,3951.281982,4705.128418,4266.153809,4329.743652,4112.820313,4709.743652,4077.948730,3955.384521,4390.769043,4167.179688,4324.102539,4269.743652,4171.794922,4165.641113,402.000000,4.000000,,,,0.000000,4.000000,4.000000,4.000000,4.000000,4.000000,4.000000,4.000000,4.000000,4.000000,4.000000,4.000000,4.000000,4.000000,4.000000,100.000000,98.000000,0.000000,1669.000000,1688.000000,,,,,,,,,,,,,,,,,,,,,,,,,,,,,,,,,,,,,,,,,,,,,,,,,,,,,,,,,,,,,,,,,,,,,,,,,,,,,,,,,,,,,,,,,,,,,,,,,,,,,,,,,,,,,,,,,,,,
1600453868.097272,99.000000,0.000000,3945.128174,4698.974121,4260.512695,4329.230957,4078.461426,4708.205078,4071.794922,3943.589844,4376.410156,4123.077148,4321.538574,4267.179688,4169.743652,4164.615234,378.000000,4.000000,,,,0.000000,4.000000,4.000000,4.000000,4.000000,4.000000,4.000000,4.000000,4.000000,4.000000,4.000000,4.000000,4.000000,4.000000,4.000000,100.000000,99.000000,0.000000,1670.000000,1689.000000,,,,,,,,,,,,,,,,,,,,,,,,,,,,,,,,,,,,,,,,,,,,,,,,,,,,,,,,,,,,,,,,,,,,,,,,,,,,,,,,,,,,,,,,,,,,,,,,,,,,,,,,,,,,,,,,,,,,
1600453868.105092,100.000000,0.000000,3933.333252,4689.743652,4248.205078,4318.974121,4088.205078,4701.025879,4065.128174,3935.384521,4355.897461,4096.922852,4314.871582,4262.051270,4153.846191,4157.436035,374.000000,4.000000,,,,0.000000,4.000000,4.000000,4.000000,4.000000,4.000000,4.000000,4.000000,4.000000,4.000000,4.000000,4.000000,4.000000,4.000000,4.000000,100.000000,100.000000,0.000000,1669.000000,1689.000000,,,,,,,,,,,,,,,,,,,,,,,,,,,,,,,,,,,,,,,,,,,,,,,,,,,,,,,,,,,,,,,,,,,,,,,,,,,,,,,,,,,,,,,,,,,,,,,,,,,,,,,,,,,,,,,,,,,,
1600453868.112812,101.000000,0.000000,3948.718018,4706.666504,4258.974121,4327.692383,4124.102539,4705.128418,4076.923096,3949.743652,4373.333496,4140.000000,4324.102539,4271.794922,4163.077148,4162.051270,366.000000,4.000000,,,,0.000000,4.000000,4.000000,4.000000,4.000000,4.000000,4.000000,4.000000,4.000000,4.000000,4.000000,4.000000,4.000000,4.000000,4.000000,100.000000,101.000000,0.000000,1670.000000,1691.000000,,,,,,,,,,,,,,,,,,,,,,,,,,,,,,,,,,,,,,,,,,,,,,,,,,,,,,,,,,,,,,,,,,,,,,,,,,,,,,,,,,,,,,,,,,,,,,,,,,,,,,,,,,,,,,,,,,,,
1600453868.120732,102.000000,0.000000,3967.692383,4718.974121,4272.820313,4338.974121,4113.846191,4709.743652,4076.923096,3962.051270,4401.025879,4155.897461,4329.230957,4281.025879,4176.922852,4170.769043,402.000000,4.000000,,,,0.000000,4.000000,4.000000,4.000000,4.000000,4.000000,4.000000,4.000000,4.000000,4.000000,4.000000,4.000000,4.000000,4.000000,4.000000,100.000000,102.000000,0.000000,1669.000000,1691.000000,,,,,,,,,,,,,,,,,,,,,,,,,,,,,,,,,,,,,,,,,,,,,,,,,,,,,,,,,,,,,,,,,,,,,,,,,,,,,,,,,,,,,,,,,,,,,,,,,,,,,,,,,,,,,,,,,,,,
1600453868.128552,103.000000,0.000000,3965.128174,4708.717773,4270.769043,4336.410156,4088.718018,4706.666504,4066.153809,3956.923096,4401.025879,4118.461426,4320.512695,4277.948730,4172.307617,4173.846191,378.000000,4.000000,,,,0.000000,4.000000,4.000000,4.000000,4.000000,4.000000,4.000000,4.000000,4.000000,4.000000,4.000000,4.000000,4.000000,4.000000,4.000000,100.000000,103.000000,0.000000,1670.000000,1693.000000,,,,,,,,,,,,,,,,,,,,,,,,,,,,,,,,,,,,,,,,,,,,,,,7.985590,1.271071,0.727322,0.807200,0.340271,5.826225,1.428140,0.364439,0.822854,0.482001,2.826434,0.826929,0.342449,0.385256,0.288386,2.103195,0.974585,0.309118,0.465926,0.322523,3.758912,0.985371,0.235166,1.080502,1.608840,2.632676,0.480126,0.562321,3.741511,2.155154,2.459836,0.261969,0.743956,1.076652,0.667101,3.215899,0.616745,2.246166,1.289094,1.354522,1.994656,0.868951,2.946686,3.536963,3.266638,4.217888,1.489956,0.764325,3.486722,2.225049,2.727052,0.708512,0.401741,0.430281,0.470432,3.843488,0.813243,0.332944,0.481747,0.380375,6.872203,1.486258,0.409359,0.980293,0.510088,10.798771,1.527401,0.607444,0.630003,0.388708
1600453868.136472,104.000000,0.000000,3956.923096,4701.025879,4263.589844,4326.666504,4095.897461,4701.025879,4066.153809,3946.666748,4386.666504,4108.205078,4311.282227,4267.692383,4161.025879,4165.128418,374.000000,4.000000,,,,0.000000,4.000000,4.000000,4.000000,4.000000,4.000000,4.000000,4.000000,4.000000,4.000000,4.000000,4.000000,4.000000,4.000000,4.000000,100.000000,104.000000,0.000000,1671.000000,1692.000000,,,,,,,,,,,,,,,,,,,,,,,,,,,,,,,,,,,,,,,,,,,,,,,,,,,,,,,,,,,,,,,,,,,,,,,,,,,,,,,,,,,,,,,,,,,,,,,,,,,,,,,,,,,,,,,,,,,,
1600453868.144292,105.000000,0.000000,3955.384521,4707.179688,4264.615234,4325.641113,4114.871582,4710.256348,4079.487061,3952.820557,4381.025879,4154.358887,4315.897461,4266.153809,4164.102539,4160.000000,366.000000,4.000000,,,,0.000000,4.000000,4.000000,4.000000,4.000000,4.000000,4.000000,4.000000,4.000000,4.000000,4.000000,4.000000,4.000000,4.000000,4.000000,100.000000,105.000000,0.000000,1669.000000,1692.000000,,,,,,,,,,,,,,,,,,,,,,,,,,,,,,,,,,,,,,,,,,,,,,,,,,,,,,,,,,,,,,,,,,,,,,,,,,,,,,,,,,,,,,,,,,,,,,,,,,,,,,,,,,,,,,,,,,,,
1600453868.152212,106.000000,0.000000,3946.666748,4697.948730,4254.871582,4324.102539,4104.102539,4708.205078,4076.923096,3954.358887,4367.692383,4154.871582,4313.333496,4266.153809,4160.512695,4161.025879,402.000000,4.000000,,,,0.000000,4.000000,4.000000,4.000000,4.000000,4.000000,4.000000,4.000000,4.000000,4.000000,4.000000,4.000000,4.000000,4.000000,4.000000,100.000000,106.000000,0.000000,1671.000000,1691.000000,,,,,,,,,,,,,,,,,,,,,,,,,,,,,,,,,,,,,,,,,,,,,,,,,,,,,,,,,,,,,,,,,,,,,,,,,,,,,,,,,,,,,,,,,,,,,,,,,,,,,,,,,,,,,,,,,,,,
1600453868.160032,107.000000,0.000000,3940.000000,4688.205078,4247.179688,4320.512695,4087.179443,4694.358887,4065.641113,3944.615479,4364.102539,4089.230713,4309.230957,4265.641113,4150.769043,4163.589844,378.000000,4.000000,,,,0.000000,4.000000,4.000000,4.000000,4.000000,4.000000,4.000000,4.000000,4.000000,4.000000,4.000000,4.000000,4.000000,4.000000,4.000000,100.000000,107.000000,0.000000,1670.000000,1689.000000,,,,,,,,,,,,,,,,,,,,,,,,,,,,,,,,,,,,,,,,,,,,,,,,,,,,,,,,,,,,,,,,,,,,,,,,,,,,,,,,,,,,,,,,,,,,,,,,,,,,,,,,,,,,,,,,,,,,
1600453868.167952,108.000000,0.000000,3949.743652,4692.307617,4261.025879,4323.077148,4096.922852,4703.077148,4074.358887,3952.820557,4388.205078,4091.794922,4321.538574,4276.410156,4164.102539,4175.897461,374.000000,4.000000,,,,0.000000,4.000000,4.000000,4.000000,4.000000,4.000000,4.000000,4.000000,4.000000,4.000000,4.000000,4.000000,4.000000,4.000000,4.000000,100.000000,108.000000,0.000000,1671.000000,1689.000000,,,,,,,,,,,,,,,,,,,,,,,,,,,,,,,,,,,,,,,,,,,,,,,,,,,,,,,,,,,,,,,,,,,,,,,,,,,,,,,,,,,,,,,,,,,,,,,,,,,,,,,,,,,,,,,,,,,,
1600453868.175772,109.000000,0.000000,3953.846191,4690.769043,4267.179688,4322.563965,4104.102539,4712.307617,4077.948730,3963.589844,4397.948730,4150.769043,4329.230957,4284.615234,4176.922852,4183.589844,366.000000,4.000000,,,,0.000000,4.000000,4.000000,4.000000,4.000000,4.000000,4.000000,4.000000,4.000000,4.000000,4.000000,4.000000,4.000000,4.000000,4.000000,100.000000,109.000000,0.000000,1671.000000,1687.000000,,,,,,,,,,,,,,,,,,,,,,,,,,,,,,,,,,,,,,,,,,,,,,,,,,,,,,,,,,,,,,,,,,,,,,,,,,,,,,,,,,,,,,,,,,,,,,,,,,,,,,,,,,,,,,,,,,,,
1600453868.183691,110.000000,0.000000,3955.897461,4696.922852,4261.538574,4326.666504,4096.922852,4706.153809,4068.718018,3963.076904,4388.205078,4152.307617,4326.666504,4278.974121,4172.307617,4181.025879,402.000000,4.000000,,,,0.000000,4.000000,4.000000,4.000000,4.000000,4.000000,4.000000,4.000000,4.000000,4.000000,4.000000,4.000000,4.000000,4.000000,4.000000,100.000000,110.000000,0.000000,1671.000000,1688.000000,,,,,,,,,,,,,,,,,,,,,,,,,,,,,,,,,,,,,,,,,,,,,,,,,,,,,,,,,,,,,,,,,,,,,,,,,,,,,,,,,,,,,,,,,,,,,,,,,,,,,,,,,,,,,,,,,,,,
1600453868.191511,111.000000,0.000000,3959.487061,4704.615234,4260.512695,4330.769043,4089.230713,4692.307617,4058.461426,3947.179443,4366.666504,4115.384766,4321.538574,4268.717773,4161.538574,4172.307617,378.000000,4.000000,,,,0.000000,4.000000,4.000000,4.000000,4.000000,4.000000,4.000000,4.000000,4.000000,4.000000,4.000000,4.000000,4.000000,4.000000,4.000000,100.000000,111.000000,0.000000,1672.000000,1688.000000,,,,,,,,,,,,,,,,,,,,,,,,,,,,,,,,,,,,,,,,,,,,,,,,,,,,,,,,,,,,,,,,,,,,,,,,,,,,,,,,,,,,,,,,,,,,,,,,,,,,,,,,,,,,,,,,,,,,
1600453868.199431,112.000000,0.000000,3957.435791,4700.512695,4260.512695,4327.692383,4090.769287,4689.230957,4055.897461,3928.718018,4352.307617,4118.461426,4317.948730,4267.692383,4155.897461,4165.641113,374.000000,4.000000,,,,0.000000,4.000000,4.000000,4.000000,4.000000,4.000000,4.000000,4.000000,4.000000,4.000000,4.000000,4.000000,4.000000,4.000000,4.000000,100.000000,112.000000,0.000000,1672.000000,1689.000000,,,,,,,,,,,,,,,,,,,,,,,,,,,,,,,,,,,,,,,,,,,,,,,,,,,,,,,,,,,,,,,,,,,,,,,,,,,,,,,,,,,,,,,,,,,,,,,,,,,,,,,,,,,,,,,,,,,,
1600453868.207251,113.000000,0.000000,3951.794922,4694.358887,4252.307617,4320.000000,4096.410156,4700.512695,4061.538574,3927.179443,4362.051270,4128.205078,4312.820313,4265.128418,4152.820313,4161.538574,366.000000,4.000000,,,,0.000000,4.000000,4.000000,4.000000,4.000000,4.000000,4.000000,4.000000,4.000000,4.000000,4.000000,4.000000,4.000000,4.000000,4.000000,100.000000,113.000000,0.000000,1672.000000,1688.000000,,,,,,,,,,,,,,,,,,,,,,,,,,,,,,,,,,,,,,,,,,,,,,,,,,,,,,,,,,,,,,,,,,,,,,,,,,,,,,,,,,,,,,,,,,,,,,,,,,,,,,,,,,,,,,,,,,,,
1600453868.214971,114.000000,0.000000,3957.948730,4698.974121,4251.794922,4323.077148,4109.230957,4713.333496,4074.871826,3948.718018,4380.000000,4122.051270,4315.897461,4268.205078,4156.410156,4166.666504,402.000000,4.000000,,,,0.000000,4.000000,4.000000,4.000000,4.000000,4.000000,4.000000,4.000000,4.000000,4.000000,4.000000,4.000000,4.000000,4.000000,4.000000,100.000000,114.000000,0.000000,1672.000000,1689.000000,,,,,,,,,,,,,,,,,,,,,,,,,,,,,,,,,,,,,,,,,,,,,,,,,,,,,,,,,,,,,,,,,,,,,,,,,,,,,,,,,,,,,,,,,,,,,,,,,,,,,,,,,,,,,,,,,,,,
1600453868.222791,115.000000,0.000000,3957.948730,4693.333496,4252.820313,4320.512695,4101.025879,4703.077148,4073.333252,3958.974365,4385.128418,4116.410156,4315.384766,4271.794922,4150.769043,4164.615234,378.000000,4.000000,,,,0.000000,4.000000,4.000000,4.000000,4.000000,4.000000,4.000000,4.000000,4.000000,4.000000,4.000000,4.000000,4.000000,4.000000,4.000000,100.000000,115.000000,0.000000,1673.000000,1688.000000,,,,,,,,,,,,,,,,,,,,,,,,,,,,,,,,,,,,,,,,,,,,,,,,,,,,,,,,,,,,,,,,,,,,,,,,,,,,,,,,,,,,,,,,,,,,,,,,,,,,,,,,,,,,,,,,,,,,
1600453868.230511,116.000000,0.000000,3951.281982,4686.153809,4253.333496,4318.461426,4081.025635,4692.307617,4066.666748,3958.974365,4392.820313,4121.538574,4314.358887,4270.256348,4144.615234,4159.487305,374.000000,4.000000,,,,0.000000,4.000000,4.000000,4.000000,4.000000,4.000000,4.000000,4.000000,4.000000,4.000000,4.000000,4.000000,4.000000,4.000000,4.000000,100.000000,116.000000,0.000000,1671.000000,1690.000000,,,,,,,,,,,,,,,,,,,,,,,,,,,,,,,,,,,,,,,,,,,,,,,,,,,,,,,,,,,,,,,,,,,,,,,,,,,,,,,,,,,,,,,,,,,,,,,,,,,,,,,,,,,,,,,,,,,,
1600453868.238331,117.000000,0.000000,3952.820557,4685.641113,4254.871582,4322.051270,4072.820557,4701.538574,4067.692383,3955.897461,4390.769043,4135.897461,4313.846191,4267.692383,4151.282227,4162.051270,366.000000,4.000000,,,,0.000000,4.000000,4.000000,4.000000,4.000000,4.000000,4.000000,4.000000,4.000000,4.000000,4.000000,4.000000,4.000000,4.000000,4.000000,100.000000,117.000000,0.000000,1673.000000,1689.000000,,,,,,,,,,,,,,,,,,,,,,,,,,,,,,,,,,,,,,,,,,,,,,,,,,,,,,,,,,,,,,,,,,,,,,,,,,,,,,,,,,,,,,,,,,,,,,,,,,,,,,,,,,,,,,,,,,,,
1600453868.246051,118.000000,0.000000,3954.358887,4686.666504,4251.282227,4317.948730,4083.076904,4704.102539,4067.179443,3949.743652,4369.743652,4128.717773,4313.846191,4269.230957,4153.333496,4163.589844,402.000000,4.000000,,,,0.000000,4.000000,4.000000,4.000000,4.000000,4.000000,4.000000,4.000000,4.000000,4.000000,4.000000,4.000000,4.000000,4.000000,4.000000,100.000000,118.000000,0.000000,1670.000000,1688.000000,,,,,,,,,,,,,,,,,,,,,,,,,,,,,,,,,,,,,,,,,,,,,,,,,,,,,,,,,,,,,,,,,,,,,,,,,,,,,,,,,,,,,,,,,,,,,,,,,,,,,,,,,,,,,,,,,,,,
1600453868.253871,119.000000,0.000000,3953.333252,4688.717773,4249.743652,4316.922852,4100.000000,4688.205078,4061.025635,3948.718018,4352.820313,4103.589844,4315.384766,4270.256348,4149.230957,4164.102539,378.000000,4.000000,,,,0.000000,4.000000,4.000000,4.000000,4.000000,4.000000,4.000000,4.000000,4.000000,4.000000,4.000000,4.000000,4.000000,4.000000,4.000000,100.000000,119.000000,0.000000,1671.000000,1688.000000,,,,,,,,,,,,,,,,,,,,,,,,,,,,,,,,,,,,,,,,,,,,,,,3.839461,1.221070,0.677333,0.757894,0.371094,3.466173,1.394024,0.321419,0.769870,0.503419,2.002758,0.693176,0.292493,0.356556,0.305167,1.410880,0.894526,0.285462,0.422275,0.362193,3.325901,0.994362,0.185998,1.028754,1.518248,2.278033,0.623140,0.634858,3.143248,1.955161,2.213167,0.341909,0.744139,0.883686,0.630284,3.132565,0.639622,2.045351,1.127700,1.354197,2.008752,0.947541,2.656555,3.382267,2.744843,3.963071,1.602610,0.770433,3.493880,2.140067,2.118931,0.715477,0.360056,0.382191,0.476221,2.723493,0.720338,0.292453,0.451108,0.389491,4.666288,1.319791,0.332114,0.914006,0.482801,6.539241,1.474711,0.584296,0.587991,0.387974
1600453868.261591,120.000000,0.000000,3961.538574,4692.820313,4256.922852,4330.256348,4101.025879,4684.102539,4064.615479,3952.307617,4362.563965,4114.871582,4318.461426,4271.794922,4155.384766,4170.256348,374.000000,4.000000,,,,0.000000,4.000000,4.000000,4.000000,4.000000,4.000000,4.000000,4.000000,4.000000,4.000000,4.000000,4.000000,4.000000,4.000000,4.000000,100.000000,120.000000,0.000000,1670.000000,1687.000000,,,,,,,,,,,,,,,,,,,,,,,,,,,,,,,,,,,,,,,,,,,,,,,,,,,,,,,,,,,,,,,,,,,,,,,,,,,,,,,,,,,,,,,,,,,,,,,,,,,,,,,,,,,,,,,,,,,,
1600453868.269410,121.000000,0.000000,3967.692383,4692.820313,4260.000000,4330.769043,4078.974365,4697.948730,4071.794922,3954.358887,4390.769043,4143.589844,4315.384766,4273.333496,4158.974121,4172.307617,366.000000,4.000000,,,,0.000000,4.000000,4.000000,4.000000,4.000000,4.000000,4.000000,4.000000,4.000000,4.000000,4.000000,4.000000,4.000000,4.000000,4.000000,100.000000,121.000000,0.000000,1670.000000,1688.000000,,,,,,,,,,,,,,,,,,,,,,,,,,,,,,,,,,,,,,,,,,,,,,,,,,,,,,,,,,,,,,,,,,,,,,,,,,,,,,,,,,,,,,,,,,,,,,,,,,,,,,,,,,,,,,,,,,,,
1600453868.277130,122.000000,0.000000,3961.538574,4688.205078,4254.871582,4317.948730,4074.358887,4704.615234,4070.769287,3953.846191,4401.025879,4142.563965,4314.358887,4271.794922,4157.436035,4170.769043,402.000000,4.000000,,,,0.000000,4.000000,4.000000,4.000000,4.000000,4.000000,4.000000,4.000000,4.000000,4.000000,4.000000,4.000000,4.000000,4.000000,4.000000,100.000000,122.000000,0.000000,1670.000000,1688.000000,,,,,,,,,,,,,,,,,,,,,,,,,,,,,,,,,,,,,,,,,,,,,,,,,,,,,,,,,,,,,,,,,,,,,,,,,,,,,,,,,,,,,,,,,,,,,,,,,,,,,,,,,,,,,,,,,,,,
1600453868.284950,123.000000,0.000000,3958.974365,4685.128418,4253.333496,4320.000000,4096.410156,4693.846191,4066.666748,3948.205078,4381.025879,4124.615234,4319.487305,4271.794922,4160.512695,4171.794922,378.000000,4.000000,,,,0.000000,4.000000,4.000000,4.000000,4.000000,4.000000,4.000000,4.000000,4.000000,4.000000,4.000000,4.000000,4.000000,4.000000,4.000000,100.000000,123.000000,0.000000,1669.000000,1689.000000,,,,,,,,,,,,,,,,,,,,,,,,,,,,,,,,,,,,,,,,,,,,,,,,,,,,,,,,,,,,,,,,,,,,,,,,,,,,,,,,,,,,,,,,,,,,,,,,,,,,,,,,,,,,,,,,,,,,
1600453868.292670,124.000000,0.000000,3965.641113,4688.717773,4255.897461,4330.256348,4096.410156,4684.102539,4060.000000,3935.897461,4366.153809,4118.461426,4321.538574,4274.358887,4158.974121,4175.897461,374.000000,4.000000,,,,0.000000,4.000000,4.000000,4.000000,4.000000,4.000000,4.000000,4.000000,4.000000,4.000000,4.000000,4.000000,4.000000,4.000000,4.000000,100.000000,124.000000,0.000000,1670.000000,1689.000000,,,,,,,,,,,,,,,,,,,,,,,,,,,,,,,,,,,,,,,,,,,,,,,,,,,,,,,,,,,,,,,,,,,,,,,,,,,,,,,,,,,,,,,,,,,,,,,,,,,,,,,,,,,,,,,,,,,,
1600453868.300490,125.000000,0.000000,3969.230713,4692.307617,4257.436035,4327.692383,4075.897461,4693.333496,4059.487061,3932.820557,4377.948730,4123.589844,4320.512695,4276.410156,4154.358887,4182.051270,366.000000,4.000000,,,,0.000000,4.000000,4.000000,4.000000,4.000000,4.000000,4.000000,4.000000,4.000000,4.000000,4.000000,4.000000,4.000000,4.000000,4.000000,100.000000,125.000000,0.000000,1669.000000,1690.000000,,,,,,,,,,,,,,,,,,,,,,,,,,,,,,,,,,,,,,,,,,,,,,,,,,,,,,,,,,,,,,,,,,,,,,,,,,,,,,,,,,,,,,,,,,,,,,,,,,,,,,,,,,,,,,,,,,,,
1600453868.308210,126.000000,0.000000,3962.051270,4689.230957,4256.410156,4318.974121,4071.281982,4704.102539,4071.281982,3942.564209,4382.563965,4136.922852,4320.512695,4275.897461,4154.358887,4180.000000,402.000000,4.000000,,,,0.000000,4.000000,4.000000,4.000000,4.000000,4.000000,4.000000,4.000000,4.000000,4.000000,4.000000,4.000000,4.000000,4.000000,4.000000,100.000000,126.000000,0.000000,1669.000000,1689.000000,,,,,,,,,,,,,,,,,,,,,,,,,,,,,,,,,,,,,,,,,,,,,,,,,,,,,,,,,,,,,,,,,,,,,,,,,,,,,,,,,,,,,,,,,,,,,,,,,,,,,,,,,,,,,,,,,,,,
1600453868.316130,127.000000,0.000000,3959.487061,4692.307617,4258.461426,4320.000000,4090.256348,4707.692383,4081.025635,3955.897461,4377.948730,4148.717773,4325.128418,4278.974121,4162.051270,4176.410156,378.000000,4.000000,,,,0.000000,4.000000,4.000000,4.000000,4.000000,4.000000,4.000000,4.000000,4.000000,4.000000,4.000000,4.000000,4.000000,4.000000,4.000000,100.000000,127.000000,0.000000,1668.000000,1690.000000,,,,,,,,,,,,,,,,,,,,,,,,,,,,,,,,,,,,,,,,,,,,,,,,,,,,,,,,,,,,,,,,,,,,,,,,,,,,,,,,,,,,,,,,,,,,,,,,,,,,,,,,,,,,,,,,,,,,
1600453868.323950,128.000000,0.000000,3962.564209,4696.410156,4254.871582,4327.179688,4106.666504,4707.692383,4073.333252,3958.461426,4381.538574,4131.794922,4330.256348,4280.000000,4168.205078,4175.897461,374.000000,4.000000,,,,0.000000,4.000000,4.000000,4.000000,4.000000,4.000000,4.000000,4.000000,4.000000,4.000000,4.000000,4.000000,4.000000,4.000000,4.000000,100.000000,128.000000,0.000000,1669.000000,1688.000000,,,,,,,,,,,,,,,,,,,,,,,,,,,,,,,,,,,,,,,,,,,,,,,,,,,,,,,,,,,,,,,,,,,,,,,,,,,,,,,,,,,,,,,,,,,,,,,,,,,,,,,,,,,,,,,,,,,,
1600453868.331870,0.000000,0.000000,3965.128174,4699.487305,4249.230957,4330.256348,4095.384521,4706.666504,4062.564209,3952.307617,4381.025879,4111.794922,4327.179688,4273.333496,4167.692383,4169.230957,371.000000,4.000000,,,,0.000000,4.000000,4.000000,4.000000,4.000000,4.000000,4.000000,4.000000,4.000000,4.000000,4.000000,4.000000,4.000000,4.000000,4.000000,100.000000,0.000000,0.000000,1668.000000,1688.000000,,,,,,,,,,,,,,,,,,,,,,,,,,,,,,,,,,,,,,,,,,,,,,,,,,,,,,,,,,,,,,,,,,,,,,,,,,,,,,,,,,,,,,,,,,,,,,,,,,,,,,,,,,,,,,,,,,,,
1600453868.339690,1.000000,0.000000,3964.102539,4697.948730,4247.179688,4323.589844,4075.384521,4696.410156,4056.923096,3950.256348,4369.743652,4111.794922,4312.307617,4261.538574,4155.384766,4152.307617,389.000000,4.000000,,,,0.000000,4.000000,4.000000,4.000000,4.000000,4.000000,4.000000,4.000000,4.000000,4.000000,4.000000,4.000000,4.000000,4.000000,4.000000,100.000000,1.000000,0.000000,1669.000000,1689.000000,,,,,,,,,,,,,,,,,,,,,,,,,,,,,,,,,,,,,,,,,,,,,,,,,,,,,,,,,,,,,,,,,,,,,,,,,,,,,,,,,,,,,,,,,,,,,,,,,,,,,,,,,,,,,,,,,,,,
1600453868.347610,2.000000,0.000000,3974.871826,4704.615234,4257.436035,4328.717773,4093.846191,4693.846191,4062.051270,3953.333252,4377.436035,4134.358887,4313.333496,4265.641113,4156.410156,4154.358887,422.000000,4.000000,,,,0.000000,4.000000,4.000000,4.000000,4.000000,4.000000,4.000000,4.000000,4.000000,4.000000,4.000000,4.000000,4.000000,4.000000,4.000000,100.000000,2.000000,0.000000,1669.000000,1687.000000,,,,,,,,,,,,,,,,,,,,,,,,,,,,,,,,,,,,,,,,,,,,,,,,,,,,,,,,,,,,,,,,,,,,,,,,,,,,,,,,,,,,,,,,,,,,,,,,,,,,,,,,,,,,,,,,,,,,
1600453868.355430,3.000000,0.000000,3985.128174,4713.333496,4265.641113,4338.461426,4112.307617,4712.307617,4071.794922,3952.307617,4399.487305,4145.641113,4328.717773,4276.922852,4171.282227,4167.692383,423.000000,4.000000,,,,0.000000,4.000000,4.000000,4.000000,4.000000,4.000000,4.000000,4.000000,4.000000,4.000000,4.000000,4.000000,4.000000,4.000000,4.000000,100.000000,3.000000,0.000000,1668.000000,1688.000000,,,,,,,,,,,,,,,,,,,,,,,,,,,,,,,,,,,,,,,,,,,,,,,,,,,,,,,,,,,,,,,,,,,,,,,,,,,,,,,,,,,,,,,,,,,,,,,,,,,,,,,,,,,,,,,,,,,,
1600453868.363350,4.000000,0.000000,3978.461426,4707.179688,4257.948730,4332.820313,4098.461426,4715.897461,4073.846191,3954.871826,4378.461426,4137.436035,4329.743652,4276.922852,4170.769043,4159.487305,444.000000,4.000000,,,,0.000000,4.000000,4.000000,4.000000,4.000000,4.000000,4.000000,4.000000,4.000000,4.000000,4.000000,4.000000,4.000000,4.000000,4.000000,100.000000,4.000000,0.000000,1669.000000,1688.000000,,,,,,,,,,,,,,,,,,,,,,,,,,,,,,,,,,,,,,,,,,,,,,,,,,,,,,,,,,,,,,,,,,,,,,,,,,,,,,,,,,,,,,,,,,,,,,,,,,,,,,,,,,,,,,,,,,,,
1600453868.371170,5.000000,0.000000,3958.974365,4686.666504,4240.512695,4316.410156,4084.102539,4687.179688,4061.538574,3949.230713,4334.871582,4124.102539,4313.333496,4263.077148,4148.717773,4134.358887,412.000000,4.000000,,,,0.000000,4.000000,4.000000,4.000000,4.000000,4.000000,4.000000,4.000000,4.000000,4.000000,4.000000,4.000000,4.000000,4.000000,4.000000,100.000000,5.000000,0.000000,1670.000000,1688.000000,,,,,,,,,,,,,,,,,,,,,,,,,,,,,,,,,,,,,,,,,,,,,,,,,,,,,,,,,,,,,,,,,,,,,,,,,,,,,,,,,,,,,,,,,,,,,,,,,,,,,,,,,,,,,,,,,,,,
1600453868.379090,6.000000,0.000000,3965.128174,4690.256348,4243.589844,4322.051270,4088.718018,4695.384766,4067.692383,3950.256348,4365.641113,4126.666504,4315.384766,4264.615234,4149.230957,4135.897461,426.000000,4.000000,,,,0.000000,4.000000,4.000000,4.000000,4.000000,4.000000,4.000000,4.000000,4.000000,4.000000,4.000000,4.000000,4.000000,4.000000,4.000000,100.000000,6.000000,0.000000,1670.000000,1687.000000,,,,,,,,,,,,,,,,,,,,,,,,,,,,,,,,,,,,,,,,,,,,,,,2.529480,1.274613,0.711781,0.755916,0.467487,2.295245,1.400946,0.334843,0.703517,0.515797,1.621271,0.585258,0.248452,0.323588,0.319133,1.022065,0.815573,0.252310,0.372747,0.405036,2.859818,0.996181,0.168195,0.922917,1.392290,1.921833,0.796673,0.711089,2.422326,1.773022,2.073926,0.436222,0.715634,0.679432,0.597096,3.016590,0.693074,1.799731,0.907117,1.313826,1.990731,1.010745,2.392007,3.192657,2.424450,3.667470,1.725715,0.752677,3.315399,2.102733,1.831501,0.767829,0.329698,0.321309,0.472270,2.178233,0.659026,0.260825,0.400763,0.396040,3.639522,1.338486,0.290836,0.795910,0.456833,4.559386,1.540359,0.611352,0.523671,0.387710
1600453868.386910,7.000000,0.000000,3988.718018,4710.769043,4261.538574,4337.948730,4098.974121,4732.820313,4083.076904,3964.102539,4422.051270,4135.897461,4329.230957,4278.974121,4165.641113,4157.948730,354.000000,4.000000,,,,0.000000,4.000000,4.000000,4.000000,4.000000,4.000000,4.000000,4.000000,4.000000,4.000000,4.000000,4.000000,4.000000,4.000000,4.000000,100.000000,7.000000,0.000000,1669.000000,1688.000000,,,,,,,,,,,,,,,,,,,,,,,,,,,,,,,,,,,,,,,,,,,,,,,,,,,,,,,,,,,,,,,,,,,,,,,,,,,,,,,,,,,,,,,,,,,,,,,,,,,,,,,,,,,,,,,,,,,,
1600453868.394829,8.000000,0.000000,3989.230713,4708.205078,4263.589844,4334.358887,4107.692383,4724.615234,4076.410156,3962.051270,4406.666504,4137.948730,4327.179688,4280.000000,4159.487305,4158.974121,364.000000,4.000000,,,,0.000000,4.000000,4.000000,4.000000,4.000000,4.000000,4.000000,4.000000,4.000000,4.000000,4.000000,4.000000,4.000000,4.000000,4.000000,100.000000,8.000000,0.000000,1671.000000,1687.000000,,,,,,,,,,,,,,,,,,,,,,,,,,,,,,,,,,,,,,,,,,,,,,,,,,,,,,,,,,,,,,,,,,,,,,,,,,,,,,,,,,,,,,,,,,,,,,,,,,,,,,,,,,,,,,,,,,,,
1600453868.402649,9.000000,0.000000,3978.974365,4695.384766,4256.922852,4323.589844,4088.718018,4696.410156,4065.128174,3952.307617,4368.205078,4130.769043,4320.000000,4271.794922,4146.153809,4149.743652,373.000000,4.000000,,,,0.000000,4.000000,4.000000,4.000000,4.000000,4.000000,4.000000,4.000000,4.000000,4.000000,4.000000,4.000000,4.000000,4.000000,4.000000,100.000000,9.000000,0.000000,1671.000000,1687.000000,,,,,,,,,,,,,,,,,,,,,,,,,,,,,,,,,,,,,,,,,,,,,,,,,,,,,,,,,,,,,,,,,,,,,,,,,,,,,,,,,,,,,,,,,,,,,,,,,,,,,,,,,,,,,,,,,,,,
1600453868.410369,10.000000,0.000000,3982.564209,4696.922852,4260.000000,4324.615234,4069.230713,4704.102539,4072.307617,3961.025635,4369.743652,4112.307617,4324.615234,4273.846191,4150.769043,4151.794922,403.000000,4.000000,,,,0.000000,4.000000,4.000000,4.000000,4.000000,4.000000,4.000000,4.000000,4.000000,4.000000,4.000000,4.000000,4.000000,4.000000,4.000000,100.000000,10.000000,0.000000,1671.000000,1687.000000,,,,,,,,,,,,,,,,,,,,,,,,,,,,,,,,,,,,,,,,,,,,,,,,,,,,,,,,,,,,,,,,,,,,,,,,,,,,,,,,,,,,,,,,,,,,,,,,,,,,,,,,,,,,,,,,,,,,
1600453868.418189,11.000000,0.000000,3986.666748,4701.538574,4260.000000,4325.128418,4095.384521,4721.538574,4079.487061,3965.128174,4381.538574,4114.871582,4332.307617,4277.948730,4159.487305,4149.743652,375.000000,4.000000,,,,0.000000,4.000000,4.000000,4.000000,4.000000,4.000000,4.000000,4.000000,4.000000,4.000000,4.000000,4.000000,4.000000,4.000000,4.000000,100.000000,11.000000,0.000000,1671.000000,1688.000000,,,,,,,,,,,,,,,,,,,,,,,,,,,,,,,,,,,,,,,,,,,,,,,,,,,,,,,,,,,,,,,,,,,,,,,,,,,,,,,,,,,,,,,,,,,,,,,,,,,,,,,,,,,,,,,,,,,,
1600453868.425909,12.000000,0.000000,3973.333252,4694.871582,4242.563965,4315.384766,4110.769043,4715.384766,4070.256348,3945.128174,4385.641113,4138.461426,4321.025879,4266.153809,4150.769043,4128.717773,370.000000,4.000000,,,,0.000000,4.000000,4.000000,4.000000,4.000000,4.000000,4.000000,4.000000,4.000000,4.000000,4.000000,4.000000,4.000000,4.000000,4.000000,100.000000,12.000000,0.000000,1671.000000,1689.000000,,,,,,,,,,,,,,,,,,,,,,,,,,,,,,,,,,,,,,,,,,,,,,,,,,,,,,,,,,,,,,,,,,,,,,,,,,,,,,,,,,,,,,,,,,,,,,,,,,,,,,,,,,,,,,,,,,,,
1600453868.433729,13.000000,0.000000,3965.641113,4693.846191,4235.897461,4314.871582,4090.256348,4705.128418,4065.128174,3938.974365,4384.102539,4150.769043,4313.333496,4260.000000,4146.153809,4116.410156,368.000000,4.000000,,,,0.000000,4.000000,4.000000,4.000000,4.000000,4.000000,4.000000,4.000000,4.000000,4.000000,4.000000,4.000000,4.000000,4.000000,4.000000,100.000000,13.000000,0.000000,1670.000000,1690.000000,,,,,,,,,,,,,,,,,,,,,,,,,,,,,,,,,,,,,,,,,,,,,,,,,,,,,,,,,,,,,,,,,,,,,,,,,,,,,,,,,,,,,,,,,,,,,,,,,,,,,,,,,,,,,,,,,,,,
1600453868.441449,14.000000,0.000000,3978.461426,4701.025879,4253.333496,4326.153809,4077.435791,4701.538574,4065.128174,3945.641113,4366.153809,4146.153809,4321.538574,4269.230957,4158.461426,4122.051270,403.000000,4.000000,,,,0.000000,4.000000,4.000000,4.000000,4.000000,4.000000,4.000000,4.000000,4.000000,4.000000,4.000000,4.000000,4.000000,4.000000,4.000000,100.000000,14.000000,0.000000,1670.000000,1690.000000,,,,,,,,,,,,,,,,,,,,,,,,,,,,,,,,,,,,,,,,,,,,,,,,,,,,,,,,,,,,,,,,,,,,,,,,,,,,,,,,,,,,,,,,,,,,,,,,,,,,,,,,,,,,,,,,,,,,
1600453868.449269,15.000000,0.000000,3987.692383,4702.051270,4264.102539,4328.205078,4088.205078,4703.589844,4064.102539,3947.179443,4367.179688,4116.410156,4327.179688,4275.897461,4165.128418,4125.128418,375.000000,4.000000,,,,0.000000,4.000000,4.000000,4.000000,4.000000,4.000000,4.000000,4.000000,4.000000,4.000000,4.000000,4.000000,4.000000,4.000000,4.000000,100.000000,15.000000,0.000000,1670.000000,1692.000000,,,,,,,,,,,,,,,,,,,,,,,,,,,,,,,,,,,,,,,,,,,,,,,,,,,,,,,,,,,,,,,,,,,,,,,,,,,,,,,,,,,,,,,,,,,,,,,,,,,,,,,,,,,,,,,,,,,,
1600453868.457089,16.000000,0.000000,3981.538574,4697.948730,4257.436035,4324.615234,4094.871826,4706.153809,4065.128174,3949.230713,4385.128418,4088.718018,4321.538574,4274.358887,4154.871582,4118.974121,0.000000,4.000000,,,,0.000000,4.000000,4.000000,4.000000,4.000000,4.000000,4.000000,4.000000,4.000000,4.000000,4.000000,4.000000,4.000000,4.000000,4.000000,100.000000,16.000000,0.000000,1670.000000,1691.000000,,,,,,,,,,,,,,,,,,,,,,,,,,,,,,,,,,,,,,,,,,,,,,,,,,,,,,,,,,,,,,,,,,,,,,,,,,,,,,,,,,,,,,,,,,,,,,,,,,,,,,,,,,,,,,,,,,,,
1600453868.465009,17.000000,0.000000,3982.051270,4706.153809,4255.897461,4331.282227,4097.436035,4713.333496,4073.846191,3961.025635,4388.717773,4136.922852,4326.153809,4279.487305,4159.487305,4124.615234,0.000000,4.000000,,,,0.000000,4.000000,4.000000,4.000000,4.000000,4.000000,4.000000,4.000000,4.000000,4.000000,4.000000,4.000000,4.000000,4.000000,4.000000,100.000000,17.000000,0.000000,1669.000000,1691.000000,,,,,,,,,,,,,,,,,,,,,,,,,,,,,,,,,,,,,,,,,,,,,,,,,,,,,,,,,,,,,,,,,,,,,,,,,,,,,,,,,,,,,,,,,,,,,,,,,,,,,,,,,,,,,,,,,,,,
1600453868.472729,18.000000,0.000000,3974.358887,4698.461426,4246.666504,4326.666504,4085.128174,4701.538574,4069.230713,3958.461426,4370.769043,4171.282227,4325.128418,4275.897461,4161.025879,4120.000000,0.000000,4.000000,,,,0.000000,4.000000,4.000000,4.000000,4.000000,4.000000,4.000000,4.000000,4.000000,4.000000,4.000000,4.000000,4.000000,4.000000,4.000000,100.000000,18.000000,0.000000,1670.000000,1691.000000,,,,,,,,,,,,,,,,,,,,,,,,,,,,,,,,,,,,,,,,,,,,,,,,,,,,,,,,,,,,,,,,,,,,,,,,,,,,,,,,,,,,,,,,,,,,,,,,,,,,,,,,,,,,,,,,,,,,
1600453868.480549,19.000000,0.000000,3963.076904,4684.102539,4238.461426,4315.897461,4080.000000,4689.743652,4061.025635,3947.179443,4367.179688,4120.000000,4315.897461,4266.666504,4147.179688,4109.230957,0.000000,4.000000,,,,0.000000,4.000000,4.000000,4.000000,4.000000,4.000000,4.000000,4.000000,4.000000,4.000000,4.000000,4.000000,4.000000,4.000000,4.000000,100.000000,19.000000,0.000000,1669.000000,1691.000000,,,,,,,,,,,,,,,,,,,,,,,,,,,,,,,,,,,,,,,,,,,,,,,,,,,,,,,,,,,,,,,,,,,,,,,,,,,,,,,,,,,,,,,,,,,,,,,,,,,,,,,,,,,,,,,,,,,,
1600453868.488269,20.000000,0.000000,3971.794922,4694.871582,4250.769043,4325.641113,4094.871826,4710.256348,4069.230713,3949.230713,4377.948730,4110.769043,4320.512695,4274.871582,4149.743652,4114.871582,0.000000,4.000000,,,,0.000000,4.000000,4.000000,4.000000,4.000000,4.000000,4.000000,4.000000,4.000000,4.000000,4.000000,4.000000,4.000000,4.000000,4.000000,100.000000,20.000000,0.000000,1669.000000,1690.000000,,,,,,,,,,,,,,,,,,,,,,,,,,,,,,,,,,,,,,,,,,,,,,,,,,,,,,,,,,,,,,,,,,,,,,,,,,,,,,,,,,,,,,,,,,,,,,,,,,,,,,,,,,,,,,,,,,,,
1600453868.496189,21.000000,0.000000,3988.718018,4709.743652,4262.563965,4337.948730,4102.563965,4727.692383,4084.102539,3959.487061,4385.128418,4154.871582,4331.794922,4286.666504,4170.256348,4125.128418,0.000000,4.000000,,,,0.000000,4.000000,4.000000,4.000000,4.000000,4.000000,4.000000,4.000000,4.000000,4.000000,4.000000,4.000000,4.000000,4.000000,4.000000,100.000000,21.000000,0.000000,1669.000000,1688.000000,,,,,,,,,,,,,,,,,,,,,,,,,,,,,,,,,,,,,,,,,,,,,,,,,,,,,,,,,,,,,,,,,,,,,,,,,,,,,,,,,,,,,,,,,,,,,,,,,,,,,,,,,,,,,,,,,,,,
1600453868.504009,22.000000,0.000000,3972.307617,4689.743652,4246.666504,4317.948730,4078.974365,4702.051270,4070.769287,3952.820557,4377.948730,4128.205078,4318.461426,4269.230957,4158.461426,4111.794922,0.000000,4.000000,,,,0.000000,4.000000,4.000000,4.000000,4.000000,4.000000,4.000000,4.000000,4.000000,4.000000,4.000000,4.000000,4.000000,4.000000,4.000000,100.000000,22.000000,0.000000,1668.000000,1688.000000,,,,,,,,,,,,,,,,,,,,,,,,,,,,,,,,,,,,,,,,,,,,,,,3.463456,1.458029,0.826881,0.894667,0.657609,2.096381,1.445686,0.390168,0.638505,0.520515,1.588437,0.514431,0.211287,0.300077,0.332462,0.886645,0.754318,0.214942,0.329218,0.448822,2.517757,0.977394,0.171602,0.789006,1.285328,1.701231,0.954773,0.754650,1.774337,1.643244,2.049714,0.511305,0.650079,0.507949,0.580116,2.879122,0.754534,1.526290,0.696468,1.233437,1.916971,1.050863,2.105413,3.035568,2.312973,3.277296,1.781251,0.706615,2.977286,2.158383,1.740221,0.840042,0.314779,0.268676,0.461234,2.079228,0.635578,0.243535,0.348652,0.399619,3.435900,1.501102,0.289735,0.663201,0.439210,4.195982,1.652580,0.646774,0.459356,0.387152
1600453868.511929,23.000000,0.000000,3966.153809,4678.974121,4244.102539,4313.846191,4072.820557,4694.871582,4059.487061,3946.153809,4380.000000,4102.051270,4311.794922,4264.102539,4148.205078,4107.179688,0.000000,4.000000,,,,0.000000,4.000000,4.000000,4.000000,4.000000,4.000000,4.000000,4.000000,4.000000,4.000000,4.000000,4.000000,4.000000,4.000000,4.000000,100.000000,23.000000,0.000000,1669.000000,1686.000000,,,,,,,,,,,,,,,,,,,,,,,,,,,,,,,,,,,,,,,,,,,,,,,,,,,,,,,,,,,,,,,,,,,,,,,,,,,,,,,,,,,,,,,,,,,,,,,,,,,,,,,,,,,,,,,,,,,,
1600453868.519749,24.000000,0.000000,3984.102539,4700.512695,4257.948730,4333.333496,4103.077148,4711.282227,4067.179443,3942.564209,4379.487305,4136.410156,4323.077148,4280.000000,4163.077148,4118.974121,0.000000,4.000000,,,,0.000000,4.000000,4.000000,4.000000,4.000000,4.000000,4.000000,4.000000,4.000000,4.000000,4.000000,4.000000,4.000000,4.000000,4.000000,100.000000,24.000000,0.000000,1668.000000,1686.000000,,,,,,,,,,,,,,,,,,,,,,,,,,,,,,,,,,,,,,,,,,,,,,,,,,,,,,,,,,,,,,,,,,,,,,,,,,,,,,,,,,,,,,,,,,,,,,,,,,,,,,,,,,,,,,,,,,,,
1600453868.527669,25.000000,0.000000,3987.179443,4711.794922,4254.358887,4333.333496,4114.358887,4706.153809,4071.281982,3938.461426,4369.743652,4148.205078,4324.615234,4281.025879,4165.128418,4115.897461,0.000000,4.000000,,,,0.000000,4.000000,4.000000,4.000000,4.000000,4.000000,4.000000,4.000000,4.000000,4.000000,4.000000,4.000000,4.000000,4.000000,4.000000,100.000000,25.000000,0.000000,1668.000000,1687.000000,,,,,,,,,,,,,,,,,,,,,,,,,,,,,,,,,,,,,,,,,,,,,,,,,,,,,,,,,,,,,,,,,,,,,,,,,,,,,,,,,,,,,,,,,,,,,,,,,,,,,,,,,,,,,,,,,,,,
1600453868.535489,26.000000,0.000000,3978.461426,4702.563965,4244.615234,4323.589844,4088.718018,4700.000000,4070.256348,3947.179443,4376.922852,4126.666504,4319.487305,4271.794922,4156.410156,4111.282227,0.000000,4.000000,,,,0.000000,4.000000,4.000000,4.000000,4.000000,4.000000,4.000000,4.000000,4.000000,4.000000,4.000000,4.000000,4.000000,4.000000,4.000000,100.000000,26.000000,0.000000,1669.000000,1688.000000,,,,,,,,,,,,,,,,,,,,,,,,,,,,,,,,,,,,,,,,,,,,,,,,,,,,,,,,,,,,,,,,,,,,,,,,,,,,,,,,,,,,,,,,,,,,,,,,,,,,,,,,,,,,,,,,,,,,
1600453868.543409,27.000000,0.000000,3977.948730,4700.000000,4248.205078,4328.717773,4080.512939,4703.589844,4061.538574,3948.205078,4384.615234,4109.743652,4321.025879,4271.794922,4161.538574,4116.410156,0.000000,4.000000,,,,0.000000,4.000000,4.000000,4.000000,4.000000,4.000000,4.000000,4.000000,4.000000,4.000000,4.000000,4.000000,4.000000,4.000000,4.000000,100.000000,27.000000,0.000000,1670.000000,1687.000000,,,,,,,,,,,,,,,,,,,,,,,,,,,,,,,,,,,,,,,,,,,,,,,,,,,,,,,,,,,,,,,,,,,,,,,,,,,,,,,,,,,,,,,,,,,,,,,,,,,,,,,,,,,,,,,,,,,,
1600453868.551229,28.000000,0.000000,3986.666748,4710.256348,4257.948730,4332.307617,4106.153809,4704.615234,4054.358887,3938.461426,4375.384766,4107.179688,4324.102539,4276.410156,4166.666504,4121.025879,0.000000,4.000000,,,,0.000000,4.000000,4.000000,4.000000,4.000000,4.000000,4.000000,4.000000,4.000000,4.000000,4.000000,4.000000,4.000000,4.000000,4.000000,100.000000,28.000000,0.000000,1669.000000,1688.000000,,,,,,,,,,,,,,,,,,,,,,,,,,,,,,,,,,,,,,,,,,,,,,,,,,,,,,,,,,,,,,,,,,,,,,,,,,,,,,,,,,,,,,,,,,,,,,,,,,,,,,,,,,,,,,,,,,,,
1600453868.559149,29.000000,0.000000,3986.153809,4707.692383,4260.000000,4322.563965,4109.230957,4700.512695,4057.435791,3940.512939,4364.102539,4125.641113,4317.436035,4272.307617,4154.871582,4116.410156,0.000000,4.000000,,,,0.000000,4.000000,4.000000,4.000000,4.000000,4.000000,4.000000,4.000000,4.000000,4.000000,4.000000,4.000000,4.000000,4.000000,4.000000,100.000000,29.000000,0.000000,1670.000000,1688.000000,,,,,,,,,,,,,,,,,,,,,,,,,,,,,,,,,,,,,,,,,,,,,,,,,,,,,,,,,,,,,,,,,,,,,,,,,,,,,,,,,,,,,,,,,,,,,,,,,,,,,,,,,,,,,,,,,,,,
1600453868.566968,30.000000,0.000000,3987.179443,4702.051270,4263.077148,4327.179688,4090.256348,4698.974121,4067.692383,3950.769287,4372.820313,4153.333496,4317.436035,4273.333496,4154.871582,4117.948730,0.000000,4.000000,,,,0.000000,4.000000,4.000000,4.000000,4.000000,4.000000,4.000000,4.000000,4.000000,4.000000,4.000000,4.000000,4.000000,4.000000,4.000000,100.000000,30.000000,0.000000,1670.000000,1687.000000,,,,,,,,,,,,,,,,,,,,,,,,,,,,,,,,,,,,,,,,,,,,,,,,,,,,,,,,,,,,,,,,,,,,,,,,,,,,,,,,,,,,,,,,,,,,,,,,,,,,,,,,,,,,,,,,,,,,
1600453868.574788,31.000000,0.000000,3993.846191,4705.128418,4265.641113,4337.436035,4085.641113,4705.128418,4073.333252,3951.794922,4393.846191,4144.102539,4330.769043,4283.077148,4166.153809,4126.153809,0.000000,4.000000,,,,0.000000,4.000000,4.000000,4.000000,4.000000,4.000000,4.000000,4.000000,4.000000,4.000000,4.000000,4.000000,4.000000,4.000000,4.000000,100.000000,31.000000,0.000000,1671.000000,1689.000000,,,,,,,,,,,,,,,,,,,,,,,,,,,,,,,,,,,,,,,,,,,,,,,,,,,,,,,,,,,,,,,,,,,,,,,,,,,,,,,,,,,,,,,,,,,,,,,,,,,,,,,,,,,,,,,,,,,,
1600453868.582608,32.000000,0.000000,3989.230713,4703.077148,4258.461426,4329.743652,4096.410156,4710.256348,4072.307617,3953.846191,4391.794922,4114.871582,4335.384766,4287.179688,4165.128418,4124.102539,0.000000,4.000000,,,,0.000000,4.000000,4.000000,4.000000,4.000000,4.000000,4.000000,4.000000,4.000000,4.000000,4.000000,4.000000,4.000000,4.000000,4.000000,100.000000,32.000000,0.000000,1671.000000,1686.000000,,,,,,,,,,,,,,,,,,,,,,,,,,,,,,,,,,,,,,,,,,,,,,,,,,,,,,,,,,,,,,,,,,,,,,,,,,,,,,,,,,,,,,,,,,,,,,,,,,,,,,,,,,,,,,,,,,,,
1600453868.590328,33.000000,0.000000,3969.743652,4689.743652,4246.666504,4316.410156,4095.897461,4695.897461,4062.564209,3949.743652,4352.307617,4111.794922,4321.025879,4276.922852,4148.717773,4112.307617,0.000000,4.000000,,,,0.000000,4.000000,4.000000,4.000000,4.000000,4.000000,4.000000,4.000000,4.000000,4.000000,4.000000,4.000000,4.000000,4.000000,4.000000,100.000000,33.000000,0.000000,1669.000000,1689.000000,,,,,,,,,,,,,,,,,,,,,,,,,,,,,,,,,,,,,,,,,,,,,,,,,,,,,,,,,,,,,,,,,,,,,,,,,,,,,,,,,,,,,,,,,,,,,,,,,,,,,,,,,,,,,,,,,,,,
1600453868.598148,34.000000,0.000000,3971.794922,4690.256348,4250.769043,4326.153809,4086.666748,4692.307617,4063.589844,3942.051270,4350.256348,4129.230957,4314.871582,4273.333496,4144.102539,4111.794922,0.000000,4.000000,,,,0.000000,4.000000,4.000000,4.000000,4.000000,4.000000,4.000000,4.000000,4.000000,4.000000,4.000000,4.000000,4.000000,4.000000,4.000000,100.000000,34.000000,0.000000,1671.000000,1688.000000,,,,,,,,,,,,,,,,,,,,,,,,,,,,,,,,,,,,,,,,,,,,,,,,,,,,,,,,,,,,,,,,,,,,,,,,,,,,,,,,,,,,,,,,,,,,,,,,,,,,,,,,,,,,,,,,,,,,
1600453868.605868,35.000000,0.000000,3984.615479,4697.948730,4260.000000,4337.948730,4086.153809,4704.102539,4068.718018,3936.923096,4386.153809,4125.128418,4315.897461,4271.794922,4147.179688,4112.307617,0.000000,4.000000,,,,0.000000,4.000000,4.000000,4.000000,4.000000,4.000000,4.000000,4.000000,4.000000,4.000000,4.000000,4.000000,4.000000,4.000000,4.000000,100.000000,35.000000,0.000000,1670.000000,1688.000000,,,,,,,,,,,,,,,,,,,,,,,,,,,,,,,,,,,,,,,,,,,,,,,,,,,,,,,,,,,,,,,,,,,,,,,,,,,,,,,,,,,,,,,,,,,,,,,,,,,,,,,,,,,,,,,,,,,,
1600453868.613688,36.000000,0.000000,3978.461426,4697.436035,4256.410156,4329.230957,4103.589844,4699.487305,4063.076904,3932.820557,4386.153809,4107.692383,4314.871582,4265.128418,4146.666504,4107.692383,0.000000,4.000000,,,,0.000000,4.000000,4.000000,4.000000,4.000000,4.000000,4.000000,4.000000,4.000000,4.000000,4.000000,4.000000,4.000000,4.000000,4.000000,100.000000,36.000000,0.000000,1671.000000,1689.000000,,,,,,,,,,,,,,,,,,,,,,,,,,,,,,,,,,,,,,,,,,,,,,,,,,,,,,,,,,,,,,,,,,,,,,,,,,,,,,,,,,,,,,,,,,,,,,,,,,,,,,,,,,,,,,,,,,,,
1600453868.621408,37.000000,0.000000,3962.051270,4687.179688,4245.641113,4317.436035,4097.436035,4688.717773,4055.897461,3929.230713,4364.102539,4106.153809,4312.307617,4264.102539,4143.589844,4102.563965,0.000000,4.000000,,,,0.000000,4.000000,4.000000,4.000000,4.000000,4.000000,4.000000,4.000000,4.000000,4.000000,4.000000,4.000000,4.000000,4.000000,4.000000,100.000000,37.000000,0.000000,1670.000000,1688.000000,,,,,,,,,,,,,,,,,,,,,,,,,,,,,,,,,,,,,,,,,,,,,,,,,,,,,,,,,,,,,,,,,,,,,,,,,,,,,,,,,,,,,,,,,,,,,,,,,,,,,,,,,,,,,,,,,,,,
1600453868.629228,38.000000,0.000000,3962.564209,4683.589844,4244.615234,4322.051270,4075.384521,4700.000000,4060.000000,3938.461426,4376.922852,4128.717773,4315.897461,4269.743652,4146.666504,4103.589844,0.000000,4.000000,,,,0.000000,4.000000,4.000000,4.000000,4.000000,4.000000,4.000000,4.000000,4.000000,4.000000,4.000000,4.000000,4.000000,4.000000,4.000000,100.000000,38.000000,0.000000,1671.000000,1688.000000,,,,,,,,,,,,,,,,,,,,,,,,,,,,,,,,,,,,,,,,,,,,,,,5.453359,1.755710,1.004151,1.212317,0.933969,2.287562,1.475843,0.465163,0.584406,0.521166,1.710355,0.462719,0.180955,0.297011,0.346005,0.881618,0.703553,0.182168,0.299003,0.488770,2.348608,0.922826,0.183282,0.660571,1.251770,1.645634,1.052302,0.740169,1.313823,1.580996,2.092983,0.544141,0.548622,0.396750,0.583117,2.722151,0.816860,1.240834,0.558263,1.122924,1.793581,1.078405,1.763373,2.964005,2.358724,2.805027,1.698822,0.634205,2.564387,2.337976,1.672868,0.883372,0.311621,0.237788,0.445641,2.155989,0.627106,0.238245,0.310857,0.399091,3.474367,1.668823,0.316836,0.548947,0.434945,4.434947,1.705449,0.652870,0.415375,0.385254
1600453868.636948,39.000000,0.000000,3971.794922,4689.743652,4250.256348,4329.743652,4087.179443,4705.641113,4063.076904,3948.718018,4384.615234,4137.948730,4322.051270,4275.384766,4153.333496,4106.153809,0.000000,4.000000,,,,0.000000,4.000000,4.000000,4.000000,4.000000,4.000000,4.000000,4.000000,4.000000,4.000000,4.000000,4.000000,4.000000,4.000000,4.000000,100.000000,39.000000,0.000000,1669.000000,1688.000000,,,,,,,,,,,,,,,,,,,,,,,,,,,,,,,,,,,,,,,,,,,,,,,,,,,,,,,,,,,,,,,,,,,,,,,,,,,,,,,,,,,,,,,,,,,,,,,,,,,,,,,,,,,,,,,,,,,,
1600453868.644768,40.000000,0.000000,3978.461426,4698.461426,4254.358887,4331.794922,4106.153809,4700.512695,4065.128174,3951.794922,4370.769043,4119.487305,4327.179688,4280.000000,4155.384766,4113.333496,0.000000,4.000000,,,,0.000000,4.000000,4.000000,4.000000,4.000000,4.000000,4.000000,4.000000,4.000000,4.000000,4.000000,4.000000,4.000000,4.000000,4.000000,100.000000,40.000000,0.000000,1671.000000,1688.000000,,,,,,,,,,,,,,,,,,,,,,,,,,,,,,,,,,,,,,,,,,,,,,,,,,,,,,,,,,,,,,,,,,,,,,,,,,,,,,,,,,,,,,,,,,,,,,,,,,,,,,,,,,,,,,,,,,,,
1600453868.652488,41.000000,0.000000,3976.923096,4696.922852,4251.794922,4324.615234,4095.897461,4700.512695,4064.102539,3949.230713,4372.820313,4114.358887,4321.025879,4273.333496,4149.230957,4111.794922,0.000000,4.000000,,,,0.000000,4.000000,4.000000,4.000000,4.000000,4.000000,4.000000,4.000000,4.000000,4.000000,4.000000,4.000000,4.000000,4.000000,4.000000,100.000000,41.000000,0.000000,1669.000000,1688.000000,,,,,,,,,,,,,,,,,,,,,,,,,,,,,,,,,,,,,,,,,,,,,,,,,,,,,,,,,,,,,,,,,,,,,,,,,,,,,,,,,,,,,,,,,,,,,,,,,,,,,,,,,,,,,,,,,,,,
1600453868.660308,42.000000,0.000000,3971.281982,4689.743652,4245.128418,4316.410156,4089.743652,4708.205078,4053.846191,3934.871826,4378.974121,4136.410156,4309.743652,4262.563965,4144.615234,4102.051270,0.000000,4.000000,,,,0.000000,4.000000,4.000000,4.000000,4.000000,4.000000,4.000000,4.000000,4.000000,4.000000,4.000000,4.000000,4.000000,4.000000,4.000000,100.000000,42.000000,0.000000,1669.000000,1688.000000,,,,,,,,,,,,,,,,,,,,,,,,,,,,,,,,,,,,,,,,,,,,,,,,,,,,,,,,,,,,,,,,,,,,,,,,,,,,,,,,,,,,,,,,,,,,,,,,,,,,,,,,,,,,,,,,,,,,
1600453868.668028,43.000000,0.000000,3968.718018,4687.692383,4241.025879,4315.384766,4093.846191,4697.948730,4047.179443,3921.538574,4369.230957,4134.871582,4307.179688,4257.948730,4144.102539,4097.436035,0.000000,4.000000,,,,0.000000,4.000000,4.000000,4.000000,4.000000,4.000000,4.000000,4.000000,4.000000,4.000000,4.000000,4.000000,4.000000,4.000000,4.000000,100.000000,43.000000,0.000000,1670.000000,1687.000000,,,,,,,,,,,,,,,,,,,,,,,,,,,,,,,,,,,,,,,,,,,,,,,,,,,,,,,,,,,,,,,,,,,,,,,,,,,,,,,,,,,,,,,,,,,,,,,,,,,,,,,,,,,,,,,,,,,,
1600453868.675948,44.000000,0.000000,3964.102539,4685.641113,4242.051270,4317.948730,4082.051270,4674.358887,4050.256348,3930.769287,4356.922852,4097.948730,4311.282227,4257.948730,4143.077148,4097.948730,0.000000,4.000000,,,,0.000000,4.000000,4.000000,4.000000,4.000000,4.000000,4.000000,4.000000,4.000000,4.000000,4.000000,4.000000,4.000000,4.000000,4.000000,100.000000,44.000000,0.000000,1669.000000,1688.000000,,,,,,,,,,,,,,,,,,,,,,,,,,,,,,,,,,,,,,,,,,,,,,,,,,,,,,,,,,,,,,,,,,,,,,,,,,,,,,,,,,,,,,,,,,,,,,,,,,,,,,,,,,,,,,,,,,,,
1600453868.683768,45.000000,0.000000,3973.333252,4693.846191,4249.743652,4323.589844,4084.102539,4687.692383,4058.974365,3946.153809,4360.000000,4103.589844,4321.025879,4267.692383,4154.358887,4107.179688,0.000000,4.000000,,,,0.000000,4.000000,4.000000,4.000000,4.000000,4.000000,4.000000,4.000000,4.000000,4.000000,4.000000,4.000000,4.000000,4.000000,4.000000,100.000000,45.000000,0.000000,1670.000000,1687.000000,,,,,,,,,,,,,,,,,,,,,,,,,,,,,,,,,,,,,,,,,,,,,,,,,,,,,,,,,,,,,,,,,,,,,,,,,,,,,,,,,,,,,,,,,,,,,,,,,,,,,,,,,,,,,,,,,,,,
1600453868.691688,46.000000,0.000000,3982.051270,4702.051270,4251.794922,4325.641113,4096.410156,4716.410156,4058.461426,3936.410156,4369.743652,4140.512695,4320.512695,4273.333496,4161.025879,4111.794922,0.000000,4.000000,,,,0.000000,4.000000,4.000000,4.000000,4.000000,4.000000,4.000000,4.000000,4.000000,4.000000,4.000000,4.000000,4.000000,4.000000,4.000000,100.000000,46.000000,0.000000,1669.000000,1688.000000,,,,,,,,,,,,,,,,,,,,,,,,,,,,,,,,,,,,,,,,,,,,,,,,,,,,,,,,,,,,,,,,,,,,,,,,,,,,,,,,,,,,,,,,,,,,,,,,,,,,,,,,,,,,,,,,,,,,
1600453868.699508,47.000000,0.000000,3974.358887,4696.410156,4248.717773,4322.051270,4096.922852,4708.717773,4052.307617,3925.641113,4376.410156,4134.871582,4312.307617,4266.666504,4150.769043,4104.102539,0.000000,4.000000,,,,0.000000,4.000000,4.000000,4.000000,4.000000,4.000000,4.000000,4.000000,4.000000,4.000000,4.000000,4.000000,4.000000,4.000000,4.000000,100.000000,47.000000,0.000000,1670.000000,1687.000000,,,,,,,,,,,,,,,,,,,,,,,,,,,,,,,,,,,,,,,,,,,,,,,,,,,,,,,,,,,,,,,,,,,,,,,,,,,,,,,,,,,,,,,,,,,,,,,,,,,,,,,,,,,,,,,,,,,,
1600453868.707428,48.000000,0.000000,3968.718018,4687.692383,4251.282227,4321.025879,4089.743652,4685.128418,4049.743652,3933.333252,4363.589844,4100.000000,4312.820313,4261.538574,4145.641113,4100.512695,0.000000,4.000000,,,,0.000000,4.000000,4.000000,4.000000,4.000000,4.000000,4.000000,4.000000,4.000000,4.000000,4.000000,4.000000,4.000000,4.000000,4.000000,100.000000,48.000000,0.000000,1669.000000,1688.000000,,,,,,,,,,,,,,,,,,,,,,,,,,,,,,,,,,,,,,,,,,,,,,,,,,,,,,,,,,,,,,,,,,,,,,,,,,,,,,,,,,,,,,,,,,,,,,,,,,,,,,,,,,,,,,,,,,,,
1600453868.715248,49.000000,0.000000,3982.564209,4693.333496,4262.563965,4329.230957,4091.794922,4691.794922,4056.923096,3941.025635,4349.743652,4109.743652,4323.077148,4272.820313,4157.436035,4113.846191,0.000000,4.000000,,,,0.000000,4.000000,4.000000,4.000000,4.000000,4.000000,4.000000,4.000000,4.000000,4.000000,4.000000,4.000000,4.000000,4.000000,4.000000,100.000000,49.000000,0.000000,1669.000000,1688.000000,,,,,,,,,,,,,,,,,,,,,,,,,,,,,,,,,,,,,,,,,,,,,,,,,,,,,,,,,,,,,,,,,,,,,,,,,,,,,,,,,,,,,,,,,,,,,,,,,,,,,,,,,,,,,,,,,,,,
1600453868.723167,50.000000,0.000000,3986.666748,4695.897461,4262.563965,4327.179688,4104.102539,4701.538574,4060.512939,3936.410156,4366.153809,4142.563965,4320.512695,4275.384766,4158.974121,4117.948730,0.000000,4.000000,,,,0.000000,4.000000,4.000000,4.000000,4.000000,4.000000,4.000000,4.000000,4.000000,4.000000,4.000000,4.000000,4.000000,4.000000,4.000000,100.000000,50.000000,0.000000,1668.000000,1688.000000,,,,,,,,,,,,,,,,,,,,,,,,,,,,,,,,,,,,,,,,,,,,,,,,,,,,,,,,,,,,,,,,,,,,,,,,,,,,,,,,,,,,,,,,,,,,,,,,,,,,,,,,,,,,,,,,,,,,
1600453868.730987,51.000000,0.000000,3974.871826,4689.743652,4251.794922,4321.025879,4106.666504,4691.794922,4056.410156,3940.000000,4396.922852,4144.102539,4311.794922,4265.641113,4153.333496,4107.692383,0.000000,4.000000,,,,0.000000,4.000000,4.000000,4.000000,4.000000,4.000000,4.000000,4.000000,4.000000,4.000000,4.000000,4.000000,4.000000,4.000000,4.000000,100.000000,51.000000,0.000000,1668.000000,1689.000000,,,,,,,,,,,,,,,,,,,,,,,,,,,,,,,,,,,,,,,,,,,,,,,,,,,,,,,,,,,,,,,,,,,,,,,,,,,,,,,,,,,,,,,,,,,,,,,,,,,,,,,,,,,,,,,,,,,,
1600453868.738907,52.000000,0.000000,3971.281982,4686.153809,4251.282227,4321.538574,4087.179443,4678.461426,4050.256348,3943.589844,4386.153809,4127.179688,4313.846191,4262.563965,4153.846191,4104.615234,0.000000,4.000000,,,,0.000000,4.000000,4.000000,4.000000,4.000000,4.000000,4.000000,4.000000,4.000000,4.000000,4.000000,4.000000,4.000000,4.000000,4.000000,100.000000,52.000000,0.000000,1668.000000,1689.000000,,,,,,,,,,,,,,,,,,,,,,,,,,,,,,,,,,,,,,,,,,,,,,,,,,,,,,,,,,,,,,,,,,,,,,,,,,,,,,,,,,,,,,,,,,,,,,,,,,,,,,,,,,,,,,,,,,,,
1600453868.746727,53.000000,0.000000,3986.666748,4694.358887,4263.077148,4329.743652,4086.666748,4684.615234,4056.923096,3940.512939,4356.922852,4116.410156,4330.256348,4276.922852,4165.128418,4118.974121,0.000000,4.000000,,,,0.000000,4.000000,4.000000,4.000000,4.000000,4.000000,4.000000,4.000000,4.000000,4.000000,4.000000,4.000000,4.000000,4.000000,4.000000,100.000000,53.000000,0.000000,1668.000000,1691.000000,,,,,,,,,,,,,,,,,,,,,,,,,,,,,,,,,,,,,,,,,,,,,,,,,,,,,,,,,,,,,,,,,,,,,,,,,,,,,,,,,,,,,,,,,,,,,,,,,,,,,,,,,,,,,,,,,,,,
1600453868.754647,54.000000,0.000000,3991.794922,4701.025879,4266.153809,4332.307617,4098.461426,4704.615234,4065.641113,3939.487061,4368.717773,4117.948730,4337.948730,4288.205078,4171.282227,4129.230957,0.000000,4.000000,,,,0.000000,4.000000,4.000000,4.000000,4.000000,4.000000,4.000000,4.000000,4.000000,4.000000,4.000000,4.000000,4.000000,4.000000,4.000000,100.000000,54.000000,0.000000,1669.000000,1690.000000,,,,,,,,,,,,,,,,,,,,,,,,,,,,,,,,,,,,,,,,,,,,,,,7.650046,2.064795,1.198545,1.650814,1.242041,2.586929,1.419189,0.537801,0.540070,0.521194,1.793360,0.403119,0.159565,0.322274,0.359246,0.906207,0.640022,0.164003,0.282031,0.519195,2.321812,0.819914,0.195602,0.558967,1.320136,1.707759,1.058224,0.664065,1.041964,1.580381,2.136558,0.526987,0.429143,0.350517,0.600374,2.521719,0.877772,0.986614,0.522676,0.996466,1.621246,1.110834,1.394584,2.984357,2.489145,2.296742,1.464078,0.554207,2.205071,2.640218,1.511498,0.850819,0.312087,0.228932,0.427959,2.162606,0.597637,0.239950,0.294590,0.394051,3.347012,1.706658,0.349698,0.469333,0.446442,4.461322,1.624046,0.614590,0.401729,0.382437
1600453868.762467,55.000000,0.000000,3983.589844,4700.512695,4260.512695,4331.282227,4100.000000,4719.487305,4072.820557,3955.384521,4404.615234,4146.153809,4331.282227,4284.615234,4171.794922,4123.077148,0.000000,4.000000,,,,0.000000,4.000000,4.000000,4.000000,4.000000,4.000000,4.000000,4.000000,4.000000,4.000000,4.000000,4.000000,4.000000,4.000000,4.000000,100.000000,55.000000,0.000000,1668.000000,1691.000000,,,,,,,,,,,,,,,,,,,,,,,,,,,,,,,,,,,,,,,,,,,,,,,,,,,,,,,,,,,,,,,,,,,,,,,,,,,,,,,,,,,,,,,,,,,,,,,,,,,,,,,,,,,,,,,,,,,,
1600453868.770187,56.000000,0.000000,3979.487061,4695.897461,4257.948730,4331.282227,4095.897461,4708.205078,4077.948730,3971.794922,4392.820313,4160.000000,4324.615234,4274.358887,4168.205078,4112.820313,0.000000,4.000000,,,,0.000000,4.000000,4.000000,4.000000,4.000000,4.000000,4.000000,4.000000,4.000000,4.000000,4.000000,4.000000,4.000000,4.000000,4.000000,100.000000,56.000000,0.000000,1669.000000,1690.000000,,,,,,,,,,,,,,,,,,,,,,,,,,,,,,,,,,,,,,,,,,,,,,,,,,,,,,,,,,,,,,,,,,,,,,,,,,,,,,,,,,,,,,,,,,,,,,,,,,,,,,,,,,,,,,,,,,,,
1600453868.778007,57.000000,0.000000,3981.025635,4698.461426,4260.512695,4331.282227,4102.051270,4694.358887,4073.846191,3955.897461,4357.436035,4131.794922,4324.615234,4268.717773,4165.128418,4113.333496,0.000000,4.000000,,,,0.000000,4.000000,4.000000,4.000000,4.000000,4.000000,4.000000,4.000000,4.000000,4.000000,4.000000,4.000000,4.000000,4.000000,4.000000,100.000000,57.000000,0.000000,1669.000000,1690.000000,,,,,,,,,,,,,,,,,,,,,,,,,,,,,,,,,,,,,,,,,,,,,,,,,,,,,,,,,,,,,,,,,,,,,,,,,,,,,,,,,,,,,,,,,,,,,,,,,,,,,,,,,,,,,,,,,,,,
1600453868.785727,58.000000,0.000000,3974.871826,4700.000000,4255.384766,4323.589844,4107.692383,4697.948730,4060.512939,3931.281982,4366.666504,4116.922852,4317.436035,4264.615234,4162.051270,4115.384766,0.000000,4.000000,,,,0.000000,4.000000,4.000000,4.000000,4.000000,4.000000,4.000000,4.000000,4.000000,4.000000,4.000000,4.000000,4.000000,4.000000,4.000000,100.000000,58.000000,0.000000,1669.000000,1690.000000,,,,,,,,,,,,,,,,,,,,,,,,,,,,,,,,,,,,,,,,,,,,,,,,,,,,,,,,,,,,,,,,,,,,,,,,,,,,,,,,,,,,,,,,,,,,,,,,,,,,,,,,,,,,,,,,,,,,
1600453868.793546,59.000000,0.000000,3971.794922,4696.922852,4250.769043,4319.487305,4098.974121,4703.077148,4057.435791,3941.025635,4391.282227,4128.205078,4310.769043,4263.077148,4160.512695,4114.358887,0.000000,4.000000,,,,0.000000,4.000000,4.000000,4.000000,4.000000,4.000000,4.000000,4.000000,4.000000,4.000000,4.000000,4.000000,4.000000,4.000000,4.000000,100.000000,59.000000,0.000000,1669.000000,1690.000000,,,,,,,,,,,,,,,,,,,,,,,,,,,,,,,,,,,,,,,,,,,,,,,,,,,,,,,,,,,,,,,,,,,,,,,,,,,,,,,,,,,,,,,,,,,,,,,,,,,,,,,,,,,,,,,,,,,,
1600453868.801266,60.000000,0.000000,3980.000000,4697.948730,4257.436035,4328.205078,4089.230713,4699.487305,4065.641113,3956.410156,4384.615234,4120.512695,4316.410156,4267.692383,4162.563965,4115.897461,0.000000,4.000000,,,,0.000000,4.000000,4.000000,4.000000,4.000000,4.000000,4.000000,4.000000,4.000000,4.000000,4.000000,4.000000,4.000000,4.000000,4.000000,100.000000,60.000000,0.000000,1669.000000,1690.000000,,,,,,,,,,,,,,,,,,,,,,,,,,,,,,,,,,,,,,,,,,,,,,,,,,,,,,,,,,,,,,,,,,,,,,,,,,,,,,,,,,,,,,,,,,,,,,,,,,,,,,,,,,,,,,,,,,,,
1600453868.809086,61.000000,0.000000,3979.487061,4697.436035,4260.512695,4328.717773,4096.922852,4696.410156,4063.589844,3937.948730,4367.179688,4115.897461,4317.436035,4269.743652,4157.436035,4111.794922,0.000000,4.000000,,,,0.000000,4.000000,4.000000,4.000000,4.000000,4.000000,4.000000,4.000000,4.000000,4.000000,4.000000,4.000000,4.000000,4.000000,4.000000,100.000000,61.000000,0.000000,1669.000000,1690.000000,,,,,,,,,,,,,,,,,,,,,,,,,,,,,,,,,,,,,,,,,,,,,,,,,,,,,,,,,,,,,,,,,,,,,,,,,,,,,,,,,,,,,,,,,,,,,,,,,,,,,,,,,,,,,,,,,,,,
1600453868.816806,62.000000,0.000000,3977.435791,4698.461426,4257.436035,4322.563965,4117.436035,4702.051270,4061.538574,3928.205078,4372.820313,4139.487305,4315.384766,4272.307617,4153.846191,4108.717773,0.000000,4.000000,,,,0.000000,4.000000,4.000000,4.000000,4.000000,4.000000,4.000000,4.000000,4.000000,4.000000,4.000000,4.000000,4.000000,4.000000,4.000000,100.000000,62.000000,0.000000,1669.000000,1691.000000,,,,,,,,,,,,,,,,,,,,,,,,,,,,,,,,,,,,,,,,,,,,,,,,,,,,,,,,,,,,,,,,,,,,,,,,,,,,,,,,,,,,,,,,,,,,,,,,,,,,,,,,,,,,,,,,,,,,
1600453868.824626,63.000000,0.000000,3984.615479,4697.948730,4260.512695,4326.153809,4112.307617,4704.102539,4066.153809,3945.641113,4385.641113,4143.589844,4320.000000,4279.487305,4155.897461,4111.282227,0.000000,4.000000,,,,0.000000,4.000000,4.000000,4.000000,4.000000,4.000000,4.000000,4.000000,4.000000,4.000000,4.000000,4.000000,4.000000,4.000000,4.000000,100.000000,63.000000,0.000000,1669.000000,1690.000000,,,,,,,,,,,,,,,,,,,,,,,,,,,,,,,,,,,,,,,,,,,,,,,,,,,,,,,,,,,,,,,,,,,,,,,,,,,,,,,,,,,,,,,,,,,,,,,,,,,,,,,,,,,,,,,,,,,,
1600453868.832346,64.000000,0.000000,3990.256348,4700.000000,4268.717773,4332.307617,4098.461426,4693.846191,4063.076904,3949.743652,4380.000000,4121.025879,4327.179688,4286.153809,4161.538574,4117.948730,371.000000,4.000000,,,,0.000000,4.000000,4.000000,4.000000,4.000000,4.000000,4.000000,4.000000,4.000000,4.000000,4.000000,4.000000,4.000000,4.000000,4.000000,100.000000,64.000000,0.000000,1670.000000,1689.000000,,,,,,,,,,,,,,,,,,,,,,,,,,,,,,,,,,,,,,,,,,,,,,,,,,,,,,,,,,,,,,,,,,,,,,,,,,,,,,,,,,,,,,,,,,,,,,,,,,,,,,,,,,,,,,,,,,,,
1600453868.840166,65.000000,0.000000,3984.102539,4697.948730,4266.153809,4327.179688,4096.410156,4674.871582,4051.281982,3936.923096,4363.077148,4111.282227,4324.102539,4281.025879,4161.538574,4121.025879,385.000000,4.000000,,,,0.000000,4.000000,4.000000,4.000000,4.000000,4.000000,4.000000,4.000000,4.000000,4.000000,4.000000,4.000000,4.000000,4.000000,4.000000,100.000000,65.000000,0.000000,1670.000000,1689.000000,,,,,,,,,,,,,,,,,,,,,,,,,,,,,,,,,,,,,,,,,,,,,,,,,,,,,,,,,,,,,,,,,,,,,,,,,,,,,,,,,,,,,,,,,,,,,,,,,,,,,,,,,,,,,,,,,,,,
1600453868.847886,66.000000,0.000000,3986.666748,4699.487305,4264.615234,4328.205078,4103.077148,4688.717773,4065.128174,3949.743652,4373.846191,4141.025879,4328.205078,4280.000000,4170.769043,4127.692383,417.000000,4.000000,,,,0.000000,4.000000,4.000000,4.000000,4.000000,4.000000,4.000000,4.000000,4.000000,4.000000,4.000000,4.000000,4.000000,4.000000,4.000000,100.000000,66.000000,0.000000,1671.000000,1689.000000,,,,,,,,,,,,,,,,,,,,,,,,,,,,,,,,,,,,,,,,,,,,,,,,,,,,,,,,,,,,,,,,,,,,,,,,,,,,,,,,,,,,,,,,,,,,,,,,,,,,,,,,,,,,,,,,,,,,
1600453868.855806,67.000000,0.000000,3991.281982,4701.538574,4269.743652,4332.820313,4106.153809,4716.410156,4081.025635,3955.897461,4391.282227,4161.538574,4331.794922,4283.077148,4176.922852,4129.743652,419.000000,4.000000,,,,0.000000,4.000000,4.000000,4.000000,4.000000,4.000000,2.000000,4.000000,4.000000,4.000000,4.000000,4.000000,4.000000,4.000000,4.000000,83.333336,67.000000,0.000000,1670.000000,1690.000000,,,,,,,,,,,,,,,,,,,,,,,,,,,,,,,,,,,,,,,,,,,,,,,,,,,,,,,,,,,,,,,,,,,,,,,,,,,,,,,,,,,,,,,,,,,,,,,,,,,,,,,,,,,,,,,,,,,,
1600453868.863626,68.000000,0.000000,3990.256348,4700.512695,4269.743652,4331.794922,4112.307617,4713.846191,4070.256348,3935.897461,4381.538574,4133.846191,4324.102539,4280.512695,4165.641113,4125.641113,441.000000,4.000000,,,,0.000000,4.000000,4.000000,4.000000,4.000000,4.000000,2.000000,4.000000,4.000000,4.000000,4.000000,4.000000,4.000000,4.000000,4.000000,83.333336,68.000000,0.000000,1670.000000,1690.000000,,,,,,,,,,,,,,,,,,,,,,,,,,,,,,,,,,,,,,,,,,,,,,,,,,,,,,,,,,,,,,,,,,,,,,,,,,,,,,,,,,,,,,,,,,,,,,,,,,,,,,,,,,,,,,,,,,,,
1600453868.871446,69.000000,0.000000,3987.179443,4698.461426,4264.102539,4329.743652,4109.230957,4703.589844,4060.512939,3927.692383,4365.128418,4106.666504,4316.922852,4275.897461,4154.358887,4121.025879,406.000000,4.000000,,,,0.000000,4.000000,4.000000,4.000000,4.000000,4.000000,2.000000,4.000000,4.000000,4.000000,4.000000,4.000000,4.000000,4.000000,4.000000,83.333336,69.000000,0.000000,1670.000000,1690.000000,,,,,,,,,,,,,,,,,,,,,,,,,,,,,,,,,,,,,,,,,,,,,,,,,,,,,,,,,,,,,,,,,,,,,,,,,,,,,,,,,,,,,,,,,,,,,,,,,,,,,,,,,,,,,,,,,,,,
1600453868.879166,70.000000,0.000000,3990.256348,4701.538574,4264.102539,4334.871582,4111.282227,4709.743652,4068.205078,3943.589844,4364.102539,4127.692383,4321.538574,4280.000000,4161.538574,4124.102539,422.000000,4.000000,,,,0.000000,4.000000,4.000000,4.000000,4.000000,4.000000,2.000000,4.000000,4.000000,4.000000,4.000000,4.000000,4.000000,4.000000,4.000000,83.333336,70.000000,0.000000,1671.000000,1690.000000,,,,,,,,,,,,,,,,,,,,,,,,,,,,,,,,,,,,,,,,,,,,,,,9.351215,2.285434,1.356976,2.069741,1.496657,2.775218,1.265715,0.595361,0.493775,0.522471,1.778008,0.333799,0.151387,0.376489,0.371203,0.909359,0.554262,0.168405,0.271323,0.536636,2.314725,0.673232,0.204151,0.487878,1.475424,1.752532,0.984219,0.549485,0.881968,1.613378,2.077638,0.479947,0.320827,0.348978,0.618732,2.231713,0.937326,0.817062,0.576570,0.867412,1.390709,1.155118,1.067386,3.044843,2.633171,1.791341,1.127939,0.500580,2.009180,3.014738,1.258745,0.740744,0.315169,0.232525,0.410388,2.033533,0.536023,0.248962,0.298073,0.385348,3.016397,1.580626,0.381570,0.419733,0.471449,4.190447,1.444340,0.552861,0.413471,0.380283
1600453868.887086,71.000000,0.000000,3989.230713,4702.051270,4263.077148,4334.358887,4126.666504,4701.538574,4064.102539,3951.281982,4368.717773,4137.948730,4323.589844,4277.436035,4162.563965,4122.051270,356.000000,4.000000,,,,0.000000,4.000000,4.000000,4.000000,4.000000,4.000000,2.000000,4.000000,4.000000,4.000000,4.000000,4.000000,4.000000,4.000000,4.000000,83.333336,71.000000,0.000000,1670.000000,1690.000000,,,,,,,,,,,,,,,,,,,,,,,,,,,,,,,,,,,,,,,,,,,,,,,,,,,,,,,,,,,,,,,,,,,,,,,,,,,,,,,,,,,,,,,,,,,,,,,,,,,,,,,,,,,,,,,,,,,,
1600453868.894907,72.000000,0.000000,3983.589844,4700.512695,4261.025879,4330.256348,4123.589844,4693.333496,4058.461426,3951.281982,4381.538574,4128.717773,4321.025879,4268.717773,4154.358887,4115.384766,363.000000,4.000000,,,,0.000000,4.000000,4.000000,4.000000,4.000000,4.000000,2.000000,4.000000,4.000000,4.000000,4.000000,4.000000,4.000000,4.000000,4.000000,83.333336,72.000000,0.000000,1670.000000,1690.000000,,,,,,,,,,,,,,,,,,,,,,,,,,,,,,,,,,,,,,,,,,,,,,,,,,,,,,,,,,,,,,,,,,,,,,,,,,,,,,,,,,,,,,,,,,,,,,,,,,,,,,,,,,,,,,,,,,,,
1600453868.902826,73.000000,0.000000,3980.000000,4697.436035,4262.051270,4327.179688,4094.358887,4702.051270,4068.205078,3956.923096,4394.871582,4133.846191,4318.974121,4267.179688,4151.282227,4110.256348,371.000000,4.000000,,,,0.000000,4.000000,4.000000,4.000000,4.000000,4.000000,2.000000,4.000000,4.000000,4.000000,4.000000,4.000000,4.000000,4.000000,4.000000,83.333336,73.000000,0.000000,1671.000000,1688.000000,,,,,,,,,,,,,,,,,,,,,,,,,,,,,,,,,,,,,,,,,,,,,,,,,,,,,,,,,,,,,,,,,,,,,,,,,,,,,,,,,,,,,,,,,,,,,,,,,,,,,,,,,,,,,,,,,,,,
1600453868.910646,74.000000,0.000000,3977.948730,4691.794922,4262.563965,4325.641113,4088.718018,4706.666504,4074.358887,3959.487061,4390.256348,4132.820313,4317.436035,4268.717773,4154.871582,4109.743652,402.000000,4.000000,,,,0.000000,4.000000,4.000000,4.000000,4.000000,4.000000,2.000000,4.000000,4.000000,4.000000,4.000000,4.000000,4.000000,4.000000,4.000000,83.333336,74.000000,0.000000,1670.000000,1690.000000,,,,,,,,,,,,,,,,,,,,,,,,,,,,,,,,,,,,,,,,,,,,,,,,,,,,,,,,,,,,,,,,,,,,,,,,,,,,,,,,,,,,,,,,,,,,,,,,,,,,,,,,,,,,,,,,,,,,
1600453868.918566,75.000000,0.000000,3973.333252,4688.205078,4256.922852,4320.000000,4104.102539,4698.974121,4067.179443,3952.307617,4372.307617,4116.410156,4315.897461,4266.153809,4153.846191,4109.743652,374.000000,4.000000,,,,0.000000,4.000000,4.000000,4.000000,4.000000,4.000000,2.000000,4.000000,4.000000,4.000000,4.000000,4.000000,4.000000,4.000000,4.000000,83.333336,75.000000,0.000000,1671.000000,1690.000000,,,,,,,,,,,,,,,,,,,,,,,,,,,,,,,,,,,,,,,,,,,,,,,,,,,,,,,,,,,,,,,,,,,,,,,,,,,,,,,,,,,,,,,,,,,,,,,,,,,,,,,,,,,,,,,,,,,,
1600453868.926386,76.000000,0.000000,3973.333252,4690.256348,4256.922852,4318.974121,4106.153809,4693.846191,4064.615479,3940.000000,4364.615234,4121.025879,4316.922852,4269.230957,4153.846191,4110.256348,372.000000,4.000000,,,,0.000000,4.000000,4.000000,4.000000,4.000000,4.000000,2.000000,4.000000,4.000000,4.000000,4.000000,4.000000,4.000000,4.000000,4.000000,83.333336,76.000000,0.000000,1670.000000,1690.000000,,,,,,,,,,,,,,,,,,,,,,,,,,,,,,,,,,,,,,,,,,,,,,,,,,,,,,,,,,,,,,,,,,,,,,,,,,,,,,,,,,,,,,,,,,,,,,,,,,,,,,,,,,,,,,,,,,,,
1600453868.934306,77.000000,0.000000,3982.564209,4693.333496,4267.179688,4326.153809,4106.153809,4692.820313,4066.153809,3933.333252,4372.307617,4132.307617,4320.512695,4280.000000,4158.461426,4115.384766,364.000000,4.000000,,,,0.000000,4.000000,4.000000,4.000000,4.000000,4.000000,2.000000,4.000000,4.000000,4.000000,4.000000,4.000000,4.000000,4.000000,4.000000,83.333336,77.000000,0.000000,1670.000000,1689.000000,,,,,,,,,,,,,,,,,,,,,,,,,,,,,,,,,,,,,,,,,,,,,,,,,,,,,,,,,,,,,,,,,,,,,,,,,,,,,,,,,,,,,,,,,,,,,,,,,,,,,,,,,,,,,,,,,,,,
1600453868.942126,78.000000,0.000000,3988.718018,4696.410156,4277.436035,4330.256348,4105.128418,4687.692383,4065.128174,3937.435791,4373.846191,4121.025879,4325.128418,4283.589844,4162.051270,4123.077148,402.000000,4.000000,,,,0.000000,4.000000,4.000000,4.000000,4.000000,4.000000,2.000000,4.000000,4.000000,4.000000,4.000000,4.000000,4.000000,4.000000,4.000000,83.333336,78.000000,0.000000,1671.000000,1688.000000,,,,,,,,,,,,,,,,,,,,,,,,,,,,,,,,,,,,,,,,,,,,,,,,,,,,,,,,,,,,,,,,,,,,,,,,,,,,,,,,,,,,,,,,,,,,,,,,,,,,,,,,,,,,,,,,,,,,
1600453868.950045,79.000000,0.000000,3991.794922,4703.589844,4281.025879,4328.717773,4100.512695,4694.871582,4073.333252,3953.846191,4380.512695,4126.153809,4329.230957,4283.077148,4169.230957,4129.230957,374.000000,4.000000,,,,0.000000,4.000000,4.000000,4.000000,4.000000,4.000000,2.000000,4.000000,4.000000,4.000000,4.000000,4.000000,4.000000,4.000000,4.000000,83.333336,79.000000,0.000000,1671.000000,1688.000000,,,,,,,,,,,,,,,,,,,,,,,,,,,,,,,,,,,,,,,,,,,,,,,,,,,,,,,,,,,,,,,,,,,,,,,,,,,,,,,,,,,,,,,,,,,,,,,,,,,,,,,,,,,,,,,,,,,,
1600453868.957865,80.000000,0.000000,3988.205078,4698.974121,4274.358887,4322.051270,4105.128418,4709.230957,4080.512939,3964.102539,4383.589844,4152.307617,4326.666504,4282.051270,4172.307617,4129.743652,372.000000,4.000000,,,,0.000000,4.000000,4.000000,4.000000,4.000000,4.000000,2.000000,4.000000,4.000000,4.000000,4.000000,4.000000,4.000000,4.000000,4.000000,83.333336,80.000000,0.000000,1671.000000,1688.000000,,,,,,,,,,,,,,,,,,,,,,,,,,,,,,,,,,,,,,,,,,,,,,,,,,,,,,,,,,,,,,,,,,,,,,,,,,,,,,,,,,,,,,,,,,,,,,,,,,,,,,,,,,,,,,,,,,,,
1600453868.965585,81.000000,0.000000,3985.641113,4697.436035,4274.358887,4326.666504,4110.769043,4713.846191,4078.974365,3962.051270,4371.282227,4153.846191,4333.333496,4287.692383,4183.077148,4137.436035,364.000000,4.000000,,,,0.000000,4.000000,4.000000,4.000000,4.000000,4.000000,2.000000,4.000000,4.000000,4.000000,4.000000,4.000000,4.000000,4.000000,4.000000,83.333336,81.000000,0.000000,1671.000000,1688.000000,,,,,,,,,,,,,,,,,,,,,,,,,,,,,,,,,,,,,,,,,,,,,,,,,,,,,,,,,,,,,,,,,,,,,,,,,,,,,,,,,,,,,,,,,,,,,,,,,,,,,,,,,,,,,,,,,,,,
1600453868.973405,82.000000,0.000000,3987.179443,4698.974121,4277.436035,4331.794922,4099.487305,4703.077148,4072.307617,3953.846191,4370.256348,4122.563965,4342.563965,4291.282227,4195.384766,4142.563965,402.000000,4.000000,,,,0.000000,4.000000,4.000000,4.000000,4.000000,4.000000,2.000000,4.000000,4.000000,4.000000,4.000000,4.000000,4.000000,4.000000,4.000000,83.333336,82.000000,0.000000,1670.000000,1688.000000,,,,,,,,,,,,,,,,,,,,,,,,,,,,,,,,,,,,,,,,,,,,,,,,,,,,,,,,,,,,,,,,,,,,,,,,,,,,,,,,,,,,,,,,,,,,,,,,,,,,,,,,,,,,,,,,,,,,
1600453868.981125,83.000000,0.000000,3982.564209,4692.307617,4271.794922,4324.615234,4097.436035,4695.384766,4068.205078,3949.743652,4389.230957,4124.615234,4339.487305,4286.153809,4195.897461,4133.846191,374.000000,4.000000,,,,0.000000,4.000000,4.000000,4.000000,4.000000,4.000000,2.000000,4.000000,4.000000,4.000000,4.000000,4.000000,4.000000,4.000000,4.000000,83.333336,83.000000,0.000000,1670.000000,1690.000000,,,,,,,,,,,,,,,,,,,,,,,,,,,,,,,,,,,,,,,,,,,,,,,,,,,,,,,,,,,,,,,,,,,,,,,,,,,,,,,,,,,,,,,,,,,,,,,,,,,,,,,,,,,,,,,,,,,,
1600453868.988945,84.000000,0.000000,3969.743652,4683.589844,4263.589844,4316.922852,4103.077148,4695.384766,4061.025635,3941.538574,4377.948730,4160.000000,4327.179688,4275.897461,4187.692383,4124.102539,372.000000,4.000000,,,,0.000000,4.000000,4.000000,4.000000,4.000000,4.000000,2.000000,4.000000,4.000000,4.000000,4.000000,4.000000,4.000000,4.000000,4.000000,83.333336,84.000000,0.000000,1670.000000,1689.000000,,,,,,,,,,,,,,,,,,,,,,,,,,,,,,,,,,,,,,,,,,,,,,,,,,,,,,,,,,,,,,,,,,,,,,,,,,,,,,,,,,,,,,,,,,,,,,,,,,,,,,,,,,,,,,,,,,,,
1600453868.996665,85.000000,0.000000,3975.384521,4691.282227,4269.230957,4327.179688,4102.051270,4686.153809,4057.948730,3941.025635,4358.974121,4161.025879,4324.615234,4274.358887,4190.769043,4128.717773,364.000000,4.000000,,,,0.000000,4.000000,4.000000,4.000000,4.000000,4.000000,2.000000,4.000000,4.000000,4.000000,4.000000,4.000000,4.000000,4.000000,4.000000,83.333336,85.000000,0.000000,1669.000000,1691.000000,,,,,,,,,,,,,,,,,,,,,,,,,,,,,,,,,,,,,,,,,,,,,,,,,,,,,,,,,,,,,,,,,,,,,,,,,,,,,,,,,,,,,,,,,,,,,,,,,,,,,,,,,,,,,,,,,,,,
1600453869.004485,86.000000,0.000000,3974.358887,4693.846191,4270.256348,4330.769043,4090.769287,4667.692383,4053.333252,3944.102539,4366.666504,4117.436035,4323.589844,4273.846191,4189.230957,4125.128418,402.000000,4.000000,,,,0.000000,4.000000,4.000000,4.000000,4.000000,4.000000,2.000000,4.000000,4.000000,4.000000,4.000000,4.000000,4.000000,4.000000,4.000000,83.333336,86.000000,0.000000,1670.000000,1691.000000,,,,,,,,,,,,,,,,,,,,,,,,,,,,,,,,,,,,,,,,,,,,,,,9.932904,2.334776,1.418159,2.313449,1.620091,2.700891,1.057558,0.620053,0.436122,0.524506,1.653928,0.265299,0.153840,0.450248,0.380632,0.865813,0.454931,0.190102,0.259843,0.541051,2.182893,0.510420,0.204740,0.443820,1.663344,1.665863,0.859816,0.429997,0.754019,1.639332,1.856714,0.428507,0.239737,0.362334,0.623441,1.859411,0.985947,0.741158,0.675058,0.748347,1.128455,1.186385,0.809173,3.059069,2.734146,1.340327,0.781263,0.485175,2.011381,3.373651,0.972190,0.585400,0.318843,0.238290,0.395179,1.776649,0.456868,0.262844,0.315789,0.375105,2.579968,1.322189,0.402682,0.384656,0.502759,3.697832,1.232578,0.488069,0.436074,0.380944
1600453869.012205,87.000000,0.000000,3966.153809,4690.769043,4265.641113,4324.102539,4092.820557,4683.589844,4059.487061,3946.153809,4380.000000,4100.512695,4325.641113,4272.820313,4184.615234,4120.512695,374.000000,4.000000,,,,0.000000,4.000000,4.000000,4.000000,4.000000,4.000000,2.000000,4.000000,4.000000,4.000000,4.000000,4.000000,4.000000,4.000000,4.000000,83.333336,87.000000,0.000000,1669.000000,1691.000000,,,,,,,,,,,,,,,,,,,,,,,,,,,,,,,,,,,,,,,,,,,,,,,,,,,,,,,,,,,,,,,,,,,,,,,,,,,,,,,,,,,,,,,,,,,,,,,,,,,,,,,,,,,,,,,,,,,,
1600453869.020025,88.000000,0.000000,3973.333252,4696.922852,4268.205078,4327.179688,4099.487305,4720.000000,4074.871826,3948.205078,4384.615234,4127.179688,4331.282227,4275.384766,4191.282227,4124.615234,372.000000,4.000000,,,,0.000000,4.000000,4.000000,4.000000,4.000000,4.000000,2.000000,4.000000,4.000000,4.000000,4.000000,4.000000,4.000000,4.000000,4.000000,83.333336,88.000000,0.000000,1669.000000,1692.000000,,,,,,,,,,,,,,,,,,,,,,,,,,,,,,,,,,,,,,,,,,,,,,,,,,,,,,,,,,,,,,,,,,,,,,,,,,,,,,,,,,,,,,,,,,,,,,,,,,,,,,,,,,,,,,,,,,,,
